time [s] Activity [arb units]
0.0000 0.0000
0.0167 0.0167
0.0333 0.0333
0.0500 0.0500
0.0667 0.0667
0.0833 0.0833
0.1000 0.1000
0.1167 0.1167
0.1333 0.1333
0.1500 0.1500
0.1667 0.1667
0.1833 0.1833
0.2000 0.2000
0.2167 0.2167
0.2333 0.2333
0.2500 0.2500
0.2667 0.2667
0.2833 0.2833
0.3000 0.3000
0.3167 0.3167
0.3333 0.3333
0.3500 0.3500
0.3667 0.3667
0.3833 0.3833
0.4000 0.4000
0.4167 0.4167
0.4333 0.4333
0.4500 0.4500
0.4667 0.4667
0.4833 0.4833
0.5000 0.5000
0.5167 0.5167
0.5333 0.5333
0.5500 0.5500
0.5667 0.5667
0.5833 0.5833
0.6000 0.6000
0.6167 0.6167
0.6333 0.6333
0.6500 0.6500
0.6667 0.6667
0.6833 0.6833
0.7000 0.7000
0.7167 0.7167
0.7333 0.7333
0.7500 0.7500
0.7667 0.7667
0.7833 0.7833
0.8000 0.8000
0.8167 0.8167
0.8333 0.8333
0.8500 0.8500
0.8667 0.8667
0.8833 0.8833
0.9000 0.9000
0.9167 0.9167
0.9333 0.9333
0.9500 0.9500
0.9667 0.9667
0.9833 0.9833
1.0000 1.0000
1.0167 1.0167
1.0333 1.0333
1.0500 1.0500
1.0667 1.0667
1.0833 1.0833
1.1000 1.1000
1.1167 1.1167
1.1333 1.1333
1.1500 1.1500
1.1667 1.1667
1.1833 1.1833
1.2000 1.2000
1.2167 1.2167
1.2333 1.2333
1.2500 1.2500
1.2667 1.2667
1.2833 1.2833
1.3000 1.3000
1.3167 1.3167
1.3333 1.3333
1.3500 1.3500
1.3667 1.3667
1.3833 1.3833
1.4000 1.4000
1.4167 1.4167
1.4333 1.4333
1.4500 1.4500
1.4667 1.4667
1.4833 1.4833
1.5000 1.5000
1.5167 1.5167
1.5333 1.5333
1.5500 1.5500
1.5667 1.5667
1.5833 1.5833
1.6000 1.6000
1.6167 1.6167
1.6333 1.6333
1.6500 1.6500
1.6667 1.6667
1.6833 1.6833
1.7000 1.7000
1.7167 1.7167
1.7333 1.7333
1.7500 1.7500
1.7667 1.7667
1.7833 1.7833
1.8000 1.8000
1.8167 1.8167
1.8333 1.8333
1.8500 1.8500
1.8667 1.8667
1.8833 1.8833
1.9000 1.9000
1.9167 1.9167
1.9333 1.9333
1.9500 1.9500
1.9667 1.9667
1.9833 1.9833
2.0000 2.0000
2.0167 2.0167
2.0333 2.0333
2.0500 2.0500
2.0667 2.0667
2.0833 2.0833
2.1000 2.1000
2.1167 2.1167
2.1333 2.1333
2.1500 2.1500
2.1667 2.1667
2.1833 2.1833
2.2000 2.2000
2.2167 2.2167
2.2333 2.2333
2.2500 2.2500
2.2667 2.2667
2.2833 2.2833
2.3000 2.3000
2.3167 2.3167
2.3333 2.3333
2.3500 2.3500
2.3667 2.3667
2.3833 2.3833
2.4000 2.4000
2.4167 2.4167
2.4333 2.4333
2.4500 2.4500
2.4667 2.4667
2.4833 2.4833
2.5000 2.5000
2.5167 2.5167
2.5333 2.5333
2.5500 2.5500
2.5667 2.5667
2.5833 2.5833
2.6000 2.6000
2.6167 2.6167
2.6333 2.6333
2.6500 2.6500
2.6667 2.6667
2.6833 2.6833
2.7000 2.7000
2.7167 2.7167
2.7333 2.7333
2.7500 2.7500
2.7667 2.7667
2.7833 2.7833
2.8000 2.8000
2.8167 2.8167
2.8333 2.8333
2.8500 2.8500
2.8667 2.8667
2.8833 2.8833
2.9000 2.9000
2.9167 2.9167
2.9333 2.9333
2.9500 2.9500
2.9667 2.9667
2.9833 2.9833
3.0000 3.0000
3.0167 3.0167
3.0333 3.0333
3.0500 3.0500
3.0667 3.0667
3.0833 3.0833
3.1000 3.1000
3.1167 3.1167
3.1333 3.1333
3.1500 3.1500
3.1667 3.1667
3.1833 3.1833
3.2000 3.2000
3.2167 3.2167
3.2333 3.2333
3.2500 3.2500
3.2667 3.2667
3.2833 3.2833
3.3000 3.3000
3.3167 3.3167
3.3333 3.3333
3.3500 3.3500
3.3667 3.3667
3.3833 3.3833
3.4000 3.4000
3.4167 3.4167
3.4333 3.4333
3.4500 3.4500
3.4667 3.4667
3.4833 3.4833
3.5000 3.5000
3.5167 3.5167
3.5333 3.5333
3.5500 3.5500
3.5667 3.5667
3.5833 3.5833
3.6000 3.6000
3.6167 3.6167
3.6333 3.6333
3.6500 3.6500
3.6667 3.6667
3.6833 3.6833
3.7000 3.7000
3.7167 3.7167
3.7333 3.7333
3.7500 3.7500
3.7667 3.7667
3.7833 3.7833
3.8000 3.8000
3.8167 3.8167
3.8333 3.8333
3.8500 3.8500
3.8667 3.8667
3.8833 3.8833
3.9000 3.9000
3.9167 3.9167
3.9333 3.9333
3.9500 3.9500
3.9667 3.9667
3.9833 3.9833
4.0000 4.0000
4.0167 4.0167
4.0333 4.0333
4.0500 4.0500
4.0667 4.0667
4.0833 4.0833
4.1000 4.1000
4.1167 4.1167
4.1333 4.1333
4.1500 4.1500
4.1667 4.1667
4.1833 4.1833
4.2000 4.2000
4.2167 4.2167
4.2333 4.2333
4.2500 4.2500
4.2667 4.2667
4.2833 4.2833
4.3000 4.3000
4.3167 4.3167
4.3333 4.3333
4.3500 4.3500
4.3667 4.3667
4.3833 4.3833
4.4000 4.4000
4.4167 4.4167
4.4333 4.4333
4.4500 4.4500
4.4667 4.4667
4.4833 4.4833
4.5000 4.5000
4.5167 4.5167
4.5333 4.5333
4.5500 4.5500
4.5667 4.5667
4.5833 4.5833
4.6000 4.6000
4.6167 4.6167
4.6333 4.6333
4.6500 4.6500
4.6667 4.6667
4.6833 4.6833
4.7000 4.7000
4.7167 4.7167
4.7333 4.7333
4.7500 4.7500
4.7667 4.7667
4.7833 4.7833
4.8000 4.8000
4.8167 4.8167
4.8333 4.8333
4.8500 4.8500
4.8667 4.8667
4.8833 4.8833
4.9000 4.9000
4.9167 4.9167
4.9333 4.9333
4.9500 4.9500
4.9667 4.9667
4.9833 4.9833
5.0000 5.0000
5.0167 5.0167
5.0333 5.0333
5.0500 5.0500
5.0667 5.0667
5.0833 5.0833
5.1000 5.1000
5.1167 5.1167
5.1333 5.1333
5.1500 5.1500
5.1667 5.1667
5.1833 5.1833
5.2000 5.2000
5.2167 5.2167
5.2333 5.2333
5.2500 5.2500
5.2667 5.2667
5.2833 5.2833
5.3000 5.3000
5.3167 5.3167
5.3333 5.3333
5.3500 5.3500
5.3667 5.3667
5.3833 5.3833
5.4000 5.4000
5.4167 5.4167
5.4333 5.4333
5.4500 5.4500
5.4667 5.4667
5.4833 5.4833
5.5000 5.5000
5.5167 5.5167
5.5333 5.5333
5.5500 5.5500
5.5667 5.5667
5.5833 5.5833
5.6000 5.6000
5.6167 5.6167
5.6333 5.6333
5.6500 5.6500
5.6667 5.6667
5.6833 5.6833
5.7000 5.7000
5.7167 5.7167
5.7333 5.7333
5.7500 5.7500
5.7667 5.7667
5.7833 5.7833
5.8000 5.8000
5.8167 5.8167
5.8333 5.8333
5.8500 5.8500
5.8667 5.8667
5.8833 5.8833
5.9000 5.9000
5.9167 5.9167
5.9333 5.9333
5.9500 5.9500
5.9667 5.9667
5.9833 5.9833
6.0000 6.0000
6.0167 6.0167
6.0333 6.0333
6.0500 6.0500
6.0667 6.0667
6.0833 6.0833
6.1000 6.1000
6.1167 6.1167
6.1333 6.1333
6.1500 6.1500
6.1667 6.1667
6.1833 6.1833
6.2000 6.2000
6.2167 6.2167
6.2333 6.2333
6.2500 6.2500
6.2667 6.2667
6.2833 6.2833
6.3000 6.3000
6.3167 6.3167
6.3333 6.3333
6.3500 6.3500
6.3667 6.3667
6.3833 6.3833
6.4000 6.4000
6.4167 6.4167
6.4333 6.4333
6.4500 6.4500
6.4667 6.4667
6.4833 6.4833
6.5000 6.5000
6.5167 6.5167
6.5333 6.5333
6.5500 6.5500
6.5667 6.5667
6.5833 6.5833
6.6000 6.6000
6.6167 6.6167
6.6333 6.6333
6.6500 6.6500
6.6667 6.6667
6.6833 6.6833
6.7000 6.7000
6.7167 6.7167
6.7333 6.7333
6.7500 6.7500
6.7667 6.7667
6.7833 6.7833
6.8000 6.8000
6.8167 6.8167
6.8333 6.8333
6.8500 6.8500
6.8667 6.8667
6.8833 6.8833
6.9000 6.9000
6.9167 6.9167
6.9333 6.9333
6.9500 6.9500
6.9667 6.9667
6.9833 6.9833
7.0000 7.0000
7.0167 7.0167
7.0333 7.0333
7.0500 7.0500
7.0667 7.0667
7.0833 7.0833
7.1000 7.1000
7.1167 7.1167
7.1333 7.1333
7.1500 7.1500
7.1667 7.1667
7.1833 7.1833
7.2000 7.2000
7.2167 7.2167
7.2333 7.2333
7.2500 7.2500
7.2667 7.2667
7.2833 7.2833
7.3000 7.3000
7.3167 7.3167
7.3333 7.3333
7.3500 7.3500
7.3667 7.3667
7.3833 7.3833
7.4000 7.4000
7.4167 7.4167
7.4333 7.4333
7.4500 7.4500
7.4667 7.4667
7.4833 7.4833
7.5000 7.5000
7.5167 7.5167
7.5333 7.5333
7.5500 7.5500
7.5667 7.5667
7.5833 7.5833
7.6000 7.6000
7.6167 7.6167
7.6333 7.6333
7.6500 7.6500
7.6667 7.6667
7.6833 7.6833
7.7000 7.7000
7.7167 7.7167
7.7333 7.7333
7.7500 7.7500
7.7667 7.7667
7.7833 7.7833
7.8000 7.8000
7.8167 7.8167
7.8333 7.8333
7.8500 7.8500
7.8667 7.8667
7.8833 7.8833
7.9000 7.9000
7.9167 7.9167
7.9333 7.9333
7.9500 7.9500
7.9667 7.9667
7.9833 7.9833
8.0000 8.0000
8.0167 8.0167
8.0333 8.0333
8.0500 8.0500
8.0667 8.0667
8.0833 8.0833
8.1000 8.1000
8.1167 8.1167
8.1333 8.1333
8.1500 8.1500
8.1667 8.1667
8.1833 8.1833
8.2000 8.2000
8.2167 8.2167
8.2333 8.2333
8.2500 8.2500
8.2667 8.2667
8.2833 8.2833
8.3000 8.3000
8.3167 8.3167
8.3333 8.3333
8.3500 8.3500
8.3667 8.3667
8.3833 8.3833
8.4000 8.4000
8.4167 8.4167
8.4333 8.4333
8.4500 8.4500
8.4667 8.4667
8.4833 8.4833
8.5000 8.5000
8.5167 8.5167
8.5333 8.5333
8.5500 8.5500
8.5667 8.5667
8.5833 8.5833
8.6000 8.6000
8.6167 8.6167
8.6333 8.6333
8.6500 8.6500
8.6667 8.6667
8.6833 8.6833
8.7000 8.7000
8.7167 8.7167
8.7333 8.7333
8.7500 8.7500
8.7667 8.7667
8.7833 8.7833
8.8000 8.8000
8.8167 8.8167
8.8333 8.8333
8.8500 8.8500
8.8667 8.8667
8.8833 8.8833
8.9000 8.9000
8.9167 8.9167
8.9333 8.9333
8.9500 8.9500
8.9667 8.9667
8.9833 8.9833
9.0000 9.0000
9.0167 9.0167
9.0333 9.0333
9.0500 9.0500
9.0667 9.0667
9.0833 9.0833
9.1000 9.1000
9.1167 9.1167
9.1333 9.1333
9.1500 9.1500
9.1667 9.1667
9.1833 9.1833
9.2000 9.2000
9.2167 9.2167
9.2333 9.2333
9.2500 9.2500
9.2667 9.2667
9.2833 9.2833
9.3000 9.3000
9.3167 9.3167
9.3333 9.3333
9.3500 9.3500
9.3667 9.3667
9.3833 9.3833
9.4000 9.4000
9.4167 9.4167
9.4333 9.4333
9.4500 9.4500
9.4667 9.4667
9.4833 9.4833
9.5000 9.5000
9.5167 9.5167
9.5333 9.5333
9.5500 9.5500
9.5667 9.5667
9.5833 9.5833
9.6000 9.6000
9.6167 9.6167
9.6333 9.6333
9.6500 9.6500
9.6667 9.6667
9.6833 9.6833
9.7000 9.7000
9.7167 9.7167
9.7333 9.7333
9.7500 9.7500
9.7667 9.7667
9.7833 9.7833
9.8000 9.8000
9.8167 9.8167
9.8333 9.8333
9.8500 9.8500
9.8667 9.8667
9.8833 9.8833
9.9000 9.9000
9.9167 9.9167
9.9333 9.9333
9.9500 9.9500
9.9667 9.9667
9.9833 9.9833
10.0000 8.9833
10.0167 7.9833
10.0333 6.9833
10.0500 5.9833
10.0667 4.9833
10.0833 3.9833
10.1000 2.9833
10.1167 1.9833
10.1333 0.9833
10.1500 -0.0167
10.1667 -1.0167
10.1833 -2.0167
10.2000 -3.0167
10.2167 -4.0167
10.2333 -5.0167
10.2500 -6.0167
10.2667 -7.0167
10.2833 -8.0167
10.3000 -9.0167
10.3167 -10.0167
10.3333 -11.0167
10.3500 -12.0167
10.3667 -13.0167
10.3833 -14.0167
10.4000 -15.0167
10.4167 -16.0167
10.4333 -17.0167
10.4500 -18.0167
10.4667 -19.0167
10.4833 -20.0167
10.5000 -21.0167
10.5167 -22.0167
10.5333 -23.0167
10.5500 -24.0167
10.5667 -25.0167
10.5833 -26.0167
10.6000 -27.0167
10.6167 -28.0167
10.6333 -29.0167
10.6500 -30.0167
10.6667 -31.0167
10.6833 -32.0167
10.7000 -33.0167
10.7167 -34.0167
10.7333 -35.0167
10.7500 -36.0167
10.7667 -37.0167
10.7833 -38.0167
10.8000 -39.0167
10.8167 -40.0167
10.8333 -41.0167
10.8500 -42.0167
10.8667 -43.0167
10.8833 -44.0167
10.9000 -45.0167
10.9167 -46.0167
10.9333 -47.0167
10.9500 -48.0167
10.9667 -49.0167
10.9833 -50.0167
11.0000 -51.0167
11.0167 -52.0167
11.0333 -53.0167
11.0500 -54.0167
11.0667 -55.0167
11.0833 -56.0167
11.1000 -57.0167
11.1167 -58.0167
11.1333 -59.0167
11.1500 -60.0167
11.1667 -61.0167
11.1833 -62.0167
11.2000 -63.0167
11.2167 -64.0167
11.2333 -65.0167
11.2500 -66.0167
11.2667 -67.0167
11.2833 -68.0167
11.3000 -69.0167
11.3167 -70.0167
11.3333 -71.0167
11.3500 -72.0167
11.3667 -73.0167
11.3833 -74.0167
11.4000 -75.0167
11.4167 -76.0167
11.4333 -77.0167
11.4500 -78.0167
11.4667 -79.0167
11.4833 -80.0167
11.5000 -81.0167
11.5167 -82.0167
11.5333 -83.0167
11.5500 -84.0167
11.5667 -85.0167
11.5833 -86.0167
11.6000 -87.0167
11.6167 -88.0167
11.6333 -89.0167
11.6500 -90.0167
11.6667 -91.0167
11.6833 -92.0167
11.7000 -93.0167
11.7167 -94.0167
11.7333 -95.0167
11.7500 -96.0167
11.7667 -97.0167
11.7833 -98.0167
11.8000 -99.0167
11.8167 -100.0167
11.8333 -101.0167
11.8500 -102.0167
11.8667 -103.0167
11.8833 -104.0167
11.9000 -105.0167
11.9167 -106.0167
11.9333 -107.0167
11.9500 -108.0167
11.9667 -109.0167
11.9833 -110.0167
12.0000 -109.0167
12.0167 -108.0167
12.0333 -107.0167
12.0500 -106.0167
12.0667 -105.0167
12.0833 -104.0167
12.1000 -103.0167
12.1167 -102.0167
12.1333 -101.0167
12.1500 -100.0167
12.1667 -99.0167
12.1833 -98.0167
12.2000 -97.0167
12.2167 -96.0167
12.2333 -95.0167
12.2500 -94.0167
12.2667 -93.0167
12.2833 -92.0167
12.3000 -91.0167
12.3167 -90.0167
12.3333 -89.0167
12.3500 -88.0167
12.3667 -87.0167
12.3833 -86.0167
12.4000 -85.0167
12.4167 -84.0167
12.4333 -83.0167
12.4500 -82.0167
12.4667 -81.0167
12.4833 -80.0167
12.5000 -79.0167
12.5167 -78.0167
12.5333 -77.0167
12.5500 -76.0167
12.5667 -75.0167
12.5833 -74.0167
12.6000 -73.0167
12.6167 -72.0167
12.6333 -71.0167
12.6500 -70.0167
12.6667 -69.0167
12.6833 -68.0167
12.7000 -67.0167
12.7167 -66.0167
12.7333 -65.0167
12.7500 -64.0167
12.7667 -63.0167
12.7833 -62.0167
12.8000 -61.0167
12.8167 -60.0167
12.8333 -59.0167
12.8500 -58.0167
12.8667 -57.0167
12.8833 -56.0167
12.9000 -55.0167
12.9167 -54.0167
12.9333 -53.0167
12.9500 -52.0167
12.9667 -51.0167
12.9833 -50.0167
13.0000 -49.0167
13.0167 -48.0167
13.0333 -47.0167
13.0500 -46.0167
13.0667 -45.0167
13.0833 -44.0167
13.1000 -43.0167
13.1167 -42.0167
13.1333 -41.0167
13.1500 -40.0167
13.1667 -39.0167
13.1833 -38.0167
13.2000 -37.0167
13.2167 -36.0167
13.2333 -35.0167
13.2500 -34.0167
13.2667 -33.0167
13.2833 -32.0167
13.3000 -31.0167
13.3167 -30.0167
13.3333 -29.0167
13.3500 -28.0167
13.3667 -27.0167
13.3833 -26.0167
13.4000 -25.0167
13.4167 -24.0167
13.4333 -23.0167
13.4500 -22.0167
13.4667 -21.0167
13.4833 -20.0167
13.5000 -19.0167
13.5167 -18.0167
13.5333 -17.0167
13.5500 -16.0167
13.5667 -15.0167
13.5833 -14.0167
13.6000 -13.0167
13.6167 -12.0167
13.6333 -11.0167
13.6500 -10.0167
13.6667 -9.0167
13.6833 -8.0167
13.7000 -7.0167
13.7167 -6.0167
13.7333 -5.0167
13.7500 -4.0167
13.7667 -3.0167
13.7833 -2.0167
13.8000 -1.0167
13.8167 -0.0167
13.8333 0.9833
13.8500 1.9833
13.8667 2.9833
13.8833 3.9833
13.9000 4.9833
13.9167 5.9833
13.9333 6.9833
13.9500 7.9833
13.9667 8.9833
13.9833 9.9833
14.0000 8.9833
14.0167 7.9833
14.0333 6.9833
14.0500 5.9833
14.0667 4.9833
14.0833 3.9833
14.1000 2.9833
14.1167 1.9833
14.1333 0.9833
14.1500 -0.0167
14.1667 -1.0167
14.1833 -2.0167
14.2000 -3.0167
14.2167 -4.0167
14.2333 -5.0167
14.2500 -6.0167
14.2667 -7.0167
14.2833 -8.0167
14.3000 -9.0167
14.3167 -10.0167
14.3333 -11.0167
14.3500 -12.0167
14.3667 -13.0167
14.3833 -14.0167
14.4000 -15.0167
14.4167 -16.0167
14.4333 -17.0167
14.4500 -18.0167
14.4667 -19.0167
14.4833 -20.0167
14.5000 -21.0167
14.5167 -22.0167
14.5333 -23.0167
14.5500 -24.0167
14.5667 -25.0167
14.5833 -26.0167
14.6000 -27.0167
14.6167 -28.0167
14.6333 -29.0167
14.6500 -30.0167
14.6667 -31.0167
14.6833 -32.0167
14.7000 -33.0167
14.7167 -34.0167
14.7333 -35.0167
14.7500 -36.0167
14.7667 -37.0167
14.7833 -38.0167
14.8000 -39.0167
14.8167 -40.0167
14.8333 -41.0167
14.8500 -42.0167
14.8667 -43.0167
14.8833 -44.0167
14.9000 -45.0167
14.9167 -46.0167
14.9333 -47.0167
14.9500 -48.0167
14.9667 -49.0167
14.9833 -50.0167
15.0000 -51.0167
15.0167 -52.0167
15.0333 -53.0167
15.0500 -54.0167
15.0667 -55.0167
15.0833 -56.0167
15.1000 -57.0167
15.1167 -58.0167
15.1333 -59.0167
15.1500 -60.0167
15.1667 -61.0167
15.1833 -62.0167
15.2000 -63.0167
15.2167 -64.0167
15.2333 -65.0167
15.2500 -66.0167
15.2667 -67.0167
15.2833 -68.0167
15.3000 -69.0167
15.3167 -70.0167
15.3333 -71.0167
15.3500 -72.0167
15.3667 -73.0167
15.3833 -74.0167
15.4000 -75.0167
15.4167 -76.0167
15.4333 -77.0167
15.4500 -78.0167
15.4667 -79.0167
15.4833 -80.0167
15.5000 -81.0167
15.5167 -82.0167
15.5333 -83.0167
15.5500 -84.0167
15.5667 -85.0167
15.5833 -86.0167
15.6000 -87.0167
15.6167 -88.0167
15.6333 -89.0167
15.6500 -90.0167
15.6667 -91.0167
15.6833 -92.0167
15.7000 -93.0167
15.7167 -94.0167
15.7333 -95.0167
15.7500 -96.0167
15.7667 -97.0167
15.7833 -98.0167
15.8000 -99.0167
15.8167 -100.0167
15.8333 -101.0167
15.8500 -102.0167
15.8667 -103.0167
15.8833 -104.0167
15.9000 -105.0167
15.9167 -106.0167
15.9333 -107.0167
15.9500 -108.0167
15.9667 -109.0167
15.9833 -110.0167
16.0000 -109.0167
16.0167 -108.0167
16.0333 -107.0167
16.0500 -106.0167
16.0667 -105.0167
16.0833 -104.0167
16.1000 -103.0167
16.1167 -102.0167
16.1333 -101.0167
16.1500 -100.0167
16.1667 -99.0167
16.1833 -98.0167
16.2000 -97.0167
16.2167 -96.0167
16.2333 -95.0167
16.2500 -94.0167
16.2667 -93.0167
16.2833 -92.0167
16.3000 -91.0167
16.3167 -90.0167
16.3333 -89.0167
16.3500 -88.0167
16.3667 -87.0167
16.3833 -86.0167
16.4000 -85.0167
16.4167 -84.0167
16.4333 -83.0167
16.4500 -82.0167
16.4667 -81.0167
16.4833 -80.0167
16.5000 -79.0167
16.5167 -78.0167
16.5333 -77.0167
16.5500 -76.0167
16.5667 -75.0167
16.5833 -74.0167
16.6000 -73.0167
16.6167 -72.0167
16.6333 -71.0167
16.6500 -70.0167
16.6667 -69.0167
16.6833 -68.0167
16.7000 -67.0167
16.7167 -66.0167
16.7333 -65.0167
16.7500 -64.0167
16.7667 -63.0167
16.7833 -62.0167
16.8000 -61.0167
16.8167 -60.0167
16.8333 -59.0167
16.8500 -58.0167
16.8667 -57.0167
16.8833 -56.0167
16.9000 -55.0167
16.9167 -54.0167
16.9333 -53.0167
16.9500 -52.0167
16.9667 -51.0167
16.9833 -50.0167
17.0000 -49.0167
17.0167 -48.0167
17.0333 -47.0167
17.0500 -46.0167
17.0667 -45.0167
17.0833 -44.0167
17.1000 -43.0167
17.1167 -42.0167
17.1333 -41.0167
17.1500 -40.0167
17.1667 -39.0167
17.1833 -38.0167
17.2000 -37.0167
17.2167 -36.0167
17.2333 -35.0167
17.2500 -34.0167
17.2667 -33.0167
17.2833 -32.0167
17.3000 -31.0167
17.3167 -30.0167
17.3333 -29.0167
17.3500 -28.0167
17.3667 -27.0167
17.3833 -26.0167
17.4000 -25.0167
17.4167 -24.0167
17.4333 -23.0167
17.4500 -22.0167
17.4667 -21.0167
17.4833 -20.0167
17.5000 -19.0167
17.5167 -18.0167
17.5333 -17.0167
17.5500 -16.0167
17.5667 -15.0167
17.5833 -14.0167
17.6000 -13.0167
17.6167 -12.0167
17.6333 -11.0167
17.6500 -10.0167
17.6667 -9.0167
17.6833 -8.0167
17.7000 -7.0167
17.7167 -6.0167
17.7333 -5.0167
17.7500 -4.0167
17.7667 -3.0167
17.7833 -2.0167
17.8000 -1.0167
17.8167 -0.0167
17.8333 0.9833
17.8500 1.9833
17.8667 2.9833
17.8833 3.9833
17.9000 4.9833
17.9167 5.9833
17.9333 6.9833
17.9500 7.9833
17.9667 8.9833
17.9833 9.9833
18.0000 8.9833
18.0167 7.9833
18.0333 6.9833
18.0500 5.9833
18.0667 4.9833
18.0833 3.9833
18.1000 2.9833
18.1167 1.9833
18.1333 0.9833
18.1500 -0.0167
18.1667 -1.0167
18.1833 -2.0167
18.2000 -3.0167
18.2167 -4.0167
18.2333 -5.0167
18.2500 -6.0167
18.2667 -7.0167
18.2833 -8.0167
18.3000 -9.0167
18.3167 -10.0167
18.3333 -11.0167
18.3500 -12.0167
18.3667 -13.0167
18.3833 -14.0167
18.4000 -15.0167
18.4167 -16.0167
18.4333 -17.0167
18.4500 -18.0167
18.4667 -19.0167
18.4833 -20.0167
18.5000 -21.0167
18.5167 -22.0167
18.5333 -23.0167
18.5500 -24.0167
18.5667 -25.0167
18.5833 -26.0167
18.6000 -27.0167
18.6167 -28.0167
18.6333 -29.0167
18.6500 -30.0167
18.6667 -31.0167
18.6833 -32.0167
18.7000 -33.0167
18.7167 -34.0167
18.7333 -35.0167
18.7500 -36.0167
18.7667 -37.0167
18.7833 -38.0167
18.8000 -39.0167
18.8167 -40.0167
18.8333 -41.0167
18.8500 -42.0167
18.8667 -43.0167
18.8833 -44.0167
18.9000 -45.0167
18.9167 -46.0167
18.9333 -47.0167
18.9500 -48.0167
18.9667 -49.0167
18.9833 -50.0167
19.0000 -51.0167
19.0167 -52.0167
19.0333 -53.0167
19.0500 -54.0167
19.0667 -55.0167
19.0833 -56.0167
19.1000 -57.0167
19.1167 -58.0167
19.1333 -59.0167
19.1500 -60.0167
19.1667 -61.0167
19.1833 -62.0167
19.2000 -63.0167
19.2167 -64.0167
19.2333 -65.0167
19.2500 -66.0167
19.2667 -67.0167
19.2833 -68.0167
19.3000 -69.0167
19.3167 -70.0167
19.3333 -71.0167
19.3500 -72.0167
19.3667 -73.0167
19.3833 -74.0167
19.4000 -75.0167
19.4167 -76.0167
19.4333 -77.0167
19.4500 -78.0167
19.4667 -79.0167
19.4833 -80.0167
19.5000 -81.0167
19.5167 -82.0167
19.5333 -83.0167
19.5500 -84.0167
19.5667 -85.0167
19.5833 -86.0167
19.6000 -87.0167
19.6167 -88.0167
19.6333 -89.0167
19.6500 -90.0167
19.6667 -91.0167
19.6833 -92.0167
19.7000 -93.0167
19.7167 -94.0167
19.7333 -95.0167
19.7500 -96.0167
19.7667 -97.0167
19.7833 -98.0167
19.8000 -99.0167
19.8167 -100.0167
19.8333 -101.0167
19.8500 -102.0167
19.8667 -103.0167
19.8833 -104.0167
19.9000 -105.0167
19.9167 -106.0167
19.9333 -107.0167
19.9500 -108.0167
19.9667 -109.0167
19.9833 -110.0167
20.0000 -109.0167
20.0167 -108.0167
20.0333 -107.0167
20.0500 -106.0167
20.0667 -105.0167
20.0833 -104.0167
20.1000 -103.0167
20.1167 -102.0167
20.1333 -101.0167
20.1500 -100.0167
20.1667 -99.0167
20.1833 -98.0167
20.2000 -97.0167
20.2167 -96.0167
20.2333 -95.0167
20.2500 -94.0167
20.2667 -93.0167
20.2833 -92.0167
20.3000 -91.0167
20.3167 -90.0167
20.3333 -89.0167
20.3500 -88.0167
20.3667 -87.0167
20.3833 -86.0167
20.4000 -85.0167
20.4167 -84.0167
20.4333 -83.0167
20.4500 -82.0167
20.4667 -81.0167
20.4833 -80.0167
20.5000 -79.0167
20.5167 -78.0167
20.5333 -77.0167
20.5500 -76.0167
20.5667 -75.0167
20.5833 -74.0167
20.6000 -73.0167
20.6167 -72.0167
20.6333 -71.0167
20.6500 -70.0167
20.6667 -69.0167
20.6833 -68.0167
20.7000 -67.0167
20.7167 -66.0167
20.7333 -65.0167
20.7500 -64.0167
20.7667 -63.0167
20.7833 -62.0167
20.8000 -61.0167
20.8167 -60.0167
20.8333 -59.0167
20.8500 -58.0167
20.8667 -57.0167
20.8833 -56.0167
20.9000 -55.0167
20.9167 -54.0167
20.9333 -53.0167
20.9500 -52.0167
20.9667 -51.0167
20.9833 -50.0167
21.0000 -49.0167
21.0167 -48.0167
21.0333 -47.0167
21.0500 -46.0167
21.0667 -45.0167
21.0833 -44.0167
21.1000 -43.0167
21.1167 -42.0167
21.1333 -41.0167
21.1500 -40.0167
21.1667 -39.0167
21.1833 -38.0167
21.2000 -37.0167
21.2167 -36.0167
21.2333 -35.0167
21.2500 -34.0167
21.2667 -33.0167
21.2833 -32.0167
21.3000 -31.0167
21.3167 -30.0167
21.3333 -29.0167
21.3500 -28.0167
21.3667 -27.0167
21.3833 -26.0167
21.4000 -25.0167
21.4167 -24.0167
21.4333 -23.0167
21.4500 -22.0167
21.4667 -21.0167
21.4833 -20.0167
21.5000 -19.0167
21.5167 -18.0167
21.5333 -17.0167
21.5500 -16.0167
21.5667 -15.0167
21.5833 -14.0167
21.6000 -13.0167
21.6167 -12.0167
21.6333 -11.0167
21.6500 -10.0167
21.6667 -9.0167
21.6833 -8.0167
21.7000 -7.0167
21.7167 -6.0167
21.7333 -5.0167
21.7500 -4.0167
21.7667 -3.0167
21.7833 -2.0167
21.8000 -1.0167
21.8167 -0.0167
21.8333 0.9833
21.8500 1.9833
21.8667 2.9833
21.8833 3.9833
21.9000 4.9833
21.9167 5.9833
21.9333 6.9833
21.9500 7.9833
21.9667 8.9833
21.9833 9.9833
22.0000 8.9833
22.0167 7.9833
22.0333 6.9833
22.0500 5.9833
22.0667 4.9833
22.0833 3.9833
22.1000 2.9833
22.1167 1.9833
22.1333 0.9833
22.1500 -0.0167
22.1667 -1.0167
22.1833 -2.0167
22.2000 -3.0167
22.2167 -4.0167
22.2333 -5.0167
22.2500 -6.0167
22.2667 -7.0167
22.2833 -8.0167
22.3000 -9.0167
22.3167 -10.0167
22.3333 -11.0167
22.3500 -12.0167
22.3667 -13.0167
22.3833 -14.0167
22.4000 -15.0167
22.4167 -16.0167
22.4333 -17.0167
22.4500 -18.0167
22.4667 -19.0167
22.4833 -20.0167
22.5000 -21.0167
22.5167 -22.0167
22.5333 -23.0167
22.5500 -24.0167
22.5667 -25.0167
22.5833 -26.0167
22.6000 -27.0167
22.6167 -28.0167
22.6333 -29.0167
22.6500 -30.0167
22.6667 -31.0167
22.6833 -32.0167
22.7000 -33.0167
22.7167 -34.0167
22.7333 -35.0167
22.7500 -36.0167
22.7667 -37.0167
22.7833 -38.0167
22.8000 -39.0167
22.8167 -40.0167
22.8333 -41.0167
22.8500 -42.0167
22.8667 -43.0167
22.8833 -44.0167
22.9000 -45.0167
22.9167 -46.0167
22.9333 -47.0167
22.9500 -48.0167
22.9667 -49.0167
22.9833 -50.0167
23.0000 -51.0167
23.0167 -52.0167
23.0333 -53.0167
23.0500 -54.0167
23.0667 -55.0167
23.0833 -56.0167
23.1000 -57.0167
23.1167 -58.0167
23.1333 -59.0167
23.1500 -60.0167
23.1667 -61.0167
23.1833 -62.0167
23.2000 -63.0167
23.2167 -64.0167
23.2333 -65.0167
23.2500 -66.0167
23.2667 -67.0167
23.2833 -68.0167
23.3000 -69.0167
23.3167 -70.0167
23.3333 -71.0167
23.3500 -72.0167
23.3667 -73.0167
23.3833 -74.0167
23.4000 -75.0167
23.4167 -76.0167
23.4333 -77.0167
23.4500 -78.0167
23.4667 -79.0167
23.4833 -80.0167
23.5000 -81.0167
23.5167 -82.0167
23.5333 -83.0167
23.5500 -84.0167
23.5667 -85.0167
23.5833 -86.0167
23.6000 -87.0167
23.6167 -88.0167
23.6333 -89.0167
23.6500 -90.0167
23.6667 -91.0167
23.6833 -92.0167
23.7000 -93.0167
23.7167 -94.0167
23.7333 -95.0167
23.7500 -96.0167
23.7667 -97.0167
23.7833 -98.0167
23.8000 -99.0167
23.8167 -100.0167
23.8333 -101.0167
23.8500 -102.0167
23.8667 -103.0167
23.8833 -104.0167
23.9000 -105.0167
23.9167 -106.0167
23.9333 -107.0167
23.9500 -108.0167
23.9667 -109.0167
23.9833 -110.0167
24.0000 -109.0167
24.0167 -108.0167
24.0333 -107.0167
24.0500 -106.0167
24.0667 -105.0167
24.0833 -104.0167
24.1000 -103.0167
24.1167 -102.0167
24.1333 -101.0167
24.1500 -100.0167
24.1667 -99.0167
24.1833 -98.0167
24.2000 -97.0167
24.2167 -96.0167
24.2333 -95.0167
24.2500 -94.0167
24.2667 -93.0167
24.2833 -92.0167
24.3000 -91.0167
24.3167 -90.0167
24.3333 -89.0167
24.3500 -88.0167
24.3667 -87.0167
24.3833 -86.0167
24.4000 -85.0167
24.4167 -84.0167
24.4333 -83.0167
24.4500 -82.0167
24.4667 -81.0167
24.4833 -80.0167
24.5000 -79.0167
24.5167 -78.0167
24.5333 -77.0167
24.5500 -76.0167
24.5667 -75.0167
24.5833 -74.0167
24.6000 -73.0167
24.6167 -72.0167
24.6333 -71.0167
24.6500 -70.0167
24.6667 -69.0167
24.6833 -68.0167
24.7000 -67.0167
24.7167 -66.0167
24.7333 -65.0167
24.7500 -64.0167
24.7667 -63.0167
24.7833 -62.0167
24.8000 -61.0167
24.8167 -60.0167
24.8333 -59.0167
24.8500 -58.0167
24.8667 -57.0167
24.8833 -56.0167
24.9000 -55.0167
24.9167 -54.0167
24.9333 -53.0167
24.9500 -52.0167
24.9667 -51.0167
24.9833 -50.0167
25.0000 -49.0167
25.0167 -48.0167
25.0333 -47.0167
25.0500 -46.0167
25.0667 -45.0167
25.0833 -44.0167
25.1000 -43.0167
25.1167 -42.0167
25.1333 -41.0167
25.1500 -40.0167
25.1667 -39.0167
25.1833 -38.0167
25.2000 -37.0167
25.2167 -36.0167
25.2333 -35.0167
25.2500 -34.0167
25.2667 -33.0167
25.2833 -32.0167
25.3000 -31.0167
25.3167 -30.0167
25.3333 -29.0167
25.3500 -28.0167
25.3667 -27.0167
25.3833 -26.0167
25.4000 -25.0167
25.4167 -24.0167
25.4333 -23.0167
25.4500 -22.0167
25.4667 -21.0167
25.4833 -20.0167
25.5000 -19.0167
25.5167 -18.0167
25.5333 -17.0167
25.5500 -16.0167
25.5667 -15.0167
25.5833 -14.0167
25.6000 -13.0167
25.6167 -12.0167
25.6333 -11.0167
25.6500 -10.0167
25.6667 -9.0167
25.6833 -8.0167
25.7000 -7.0167
25.7167 -6.0167
25.7333 -5.0167
25.7500 -4.0167
25.7667 -3.0167
25.7833 -2.0167
25.8000 -1.0167
25.8167 -0.0167
25.8333 0.9833
25.8500 1.9833
25.8667 2.9833
25.8833 3.9833
25.9000 4.9833
25.9167 5.9833
25.9333 6.9833
25.9500 7.9833
25.9667 8.9833
25.9833 9.9833
26.0000 8.9833
26.0167 7.9833
26.0333 6.9833
26.0500 5.9833
26.0667 4.9833
26.0833 3.9833
26.1000 2.9833
26.1167 1.9833
26.1333 0.9833
26.1500 -0.0167
26.1667 -1.0167
26.1833 -2.0167
26.2000 -3.0167
26.2167 -4.0167
26.2333 -5.0167
26.2500 -6.0167
26.2667 -7.0167
26.2833 -8.0167
26.3000 -9.0167
26.3167 -10.0167
26.3333 -11.0167
26.3500 -12.0167
26.3667 -13.0167
26.3833 -14.0167
26.4000 -15.0167
26.4167 -16.0167
26.4333 -17.0167
26.4500 -18.0167
26.4667 -19.0167
26.4833 -20.0167
26.5000 -21.0167
26.5167 -22.0167
26.5333 -23.0167
26.5500 -24.0167
26.5667 -25.0167
26.5833 -26.0167
26.6000 -27.0167
26.6167 -28.0167
26.6333 -29.0167
26.6500 -30.0167
26.6667 -31.0167
26.6833 -32.0167
26.7000 -33.0167
26.7167 -34.0167
26.7333 -35.0167
26.7500 -36.0167
26.7667 -37.0167
26.7833 -38.0167
26.8000 -39.0167
26.8167 -40.0167
26.8333 -41.0167
26.8500 -42.0167
26.8667 -43.0167
26.8833 -44.0167
26.9000 -45.0167
26.9167 -46.0167
26.9333 -47.0167
26.9500 -48.0167
26.9667 -49.0167
26.9833 -50.0167
27.0000 -51.0167
27.0167 -52.0167
27.0333 -53.0167
27.0500 -54.0167
27.0667 -55.0167
27.0833 -56.0167
27.1000 -57.0167
27.1167 -58.0167
27.1333 -59.0167
27.1500 -60.0167
27.1667 -61.0167
27.1833 -62.0167
27.2000 -63.0167
27.2167 -64.0167
27.2333 -65.0167
27.2500 -66.0167
27.2667 -67.0167
27.2833 -68.0167
27.3000 -69.0167
27.3167 -70.0167
27.3333 -71.0167
27.3500 -72.0167
27.3667 -73.0167
27.3833 -74.0167
27.4000 -75.0167
27.4167 -76.0167
27.4333 -77.0167
27.4500 -78.0167
27.4667 -79.0167
27.4833 -80.0167
27.5000 -81.0167
27.5167 -82.0167
27.5333 -83.0167
27.5500 -84.0167
27.5667 -85.0167
27.5833 -86.0167
27.6000 -87.0167
27.6167 -88.0167
27.6333 -89.0167
27.6500 -90.0167
27.6667 -91.0167
27.6833 -92.0167
27.7000 -93.0167
27.7167 -94.0167
27.7333 -95.0167
27.7500 -96.0167
27.7667 -97.0167
27.7833 -98.0167
27.8000 -99.0167
27.8167 -100.0167
27.8333 -101.0167
27.8500 -102.0167
27.8667 -103.0167
27.8833 -104.0167
27.9000 -105.0167
27.9167 -106.0167
27.9333 -107.0167
27.9500 -108.0167
27.9667 -109.0167
27.9833 -110.0167
28.0000 -109.0167
28.0167 -108.0167
28.0333 -107.0167
28.0500 -106.0167
28.0667 -105.0167
28.0833 -104.0167
28.1000 -103.0167
28.1167 -102.0167
28.1333 -101.0167
28.1500 -100.0167
28.1667 -99.0167
28.1833 -98.0167
28.2000 -97.0167
28.2167 -96.0167
28.2333 -95.0167
28.2500 -94.0167
28.2667 -93.0167
28.2833 -92.0167
28.3000 -91.0167
28.3167 -90.0167
28.3333 -89.0167
28.3500 -88.0167
28.3667 -87.0167
28.3833 -86.0167
28.4000 -85.0167
28.4167 -84.0167
28.4333 -83.0167
28.4500 -82.0167
28.4667 -81.0167
28.4833 -80.0167
28.5000 -79.0167
28.5167 -78.0167
28.5333 -77.0167
28.5500 -76.0167
28.5667 -75.0167
28.5833 -74.0167
28.6000 -73.0167
28.6167 -72.0167
28.6333 -71.0167
28.6500 -70.0167
28.6667 -69.0167
28.6833 -68.0167
28.7000 -67.0167
28.7167 -66.0167
28.7333 -65.0167
28.7500 -64.0167
28.7667 -63.0167
28.7833 -62.0167
28.8000 -61.0167
28.8167 -60.0167
28.8333 -59.0167
28.8500 -58.0167
28.8667 -57.0167
28.8833 -56.0167
28.9000 -55.0167
28.9167 -54.0167
28.9333 -53.0167
28.9500 -52.0167
28.9667 -51.0167
28.9833 -50.0167
29.0000 -49.0167
29.0167 -48.0167
29.0333 -47.0167
29.0500 -46.0167
29.0667 -45.0167
29.0833 -44.0167
29.1000 -43.0167
29.1167 -42.0167
29.1333 -41.0167
29.1500 -40.0167
29.1667 -39.0167
29.1833 -38.0167
29.2000 -37.0167
29.2167 -36.0167
29.2333 -35.0167
29.2500 -34.0167
29.2667 -33.0167
29.2833 -32.0167
29.3000 -31.0167
29.3167 -30.0167
29.3333 -29.0167
29.3500 -28.0167
29.3667 -27.0167
29.3833 -26.0167
29.4000 -25.0167
29.4167 -24.0167
29.4333 -23.0167
29.4500 -22.0167
29.4667 -21.0167
29.4833 -20.0167
29.5000 -19.0167
29.5167 -18.0167
29.5333 -17.0167
29.5500 -16.0167
29.5667 -15.0167
29.5833 -14.0167
29.6000 -13.0167
29.6167 -12.0167
29.6333 -11.0167
29.6500 -10.0167
29.6667 -9.0167
29.6833 -8.0167
29.7000 -7.0167
29.7167 -6.0167
29.7333 -5.0167
29.7500 -4.0167
29.7667 -3.0167
29.7833 -2.0167
29.8000 -1.0167
29.8167 -0.0167
29.8333 0.9833
29.8500 1.9833
29.8667 2.9833
29.8833 3.9833
29.9000 4.9833
29.9167 5.9833
29.9333 6.9833
29.9500 7.9833
29.9667 8.9833
29.9833 9.9833
30.0000 8.9833
30.0167 7.9833
30.0333 6.9833
30.0500 5.9833
30.0667 4.9833
30.0833 3.9833
30.1000 2.9833
30.1167 1.9833
30.1333 0.9833
30.1500 -0.0167
30.1667 -1.0167
30.1833 -2.0167
30.2000 -3.0167
30.2167 -4.0167
30.2333 -5.0167
30.2500 -6.0167
30.2667 -7.0167
30.2833 -8.0167
30.3000 -9.0167
30.3167 -10.0167
30.3333 -11.0167
30.3500 -12.0167
30.3667 -13.0167
30.3833 -14.0167
30.4000 -15.0167
30.4167 -16.0167
30.4333 -17.0167
30.4500 -18.0167
30.4667 -19.0167
30.4833 -20.0167
30.5000 -21.0167
30.5167 -22.0167
30.5333 -23.0167
30.5500 -24.0167
30.5667 -25.0167
30.5833 -26.0167
30.6000 -27.0167
30.6167 -28.0167
30.6333 -29.0167
30.6500 -30.0167
30.6667 -31.0167
30.6833 -32.0167
30.7000 -33.0167
30.7167 -34.0167
30.7333 -35.0167
30.7500 -36.0167
30.7667 -37.0167
30.7833 -38.0167
30.8000 -39.0167
30.8167 -40.0167
30.8333 -41.0167
30.8500 -42.0167
30.8667 -43.0167
30.8833 -44.0167
30.9000 -45.0167
30.9167 -46.0167
30.9333 -47.0167
30.9500 -48.0167
30.9667 -49.0167
30.9833 -50.0167
31.0000 -51.0167
31.0167 -52.0167
31.0333 -53.0167
31.0500 -54.0167
31.0667 -55.0167
31.0833 -56.0167
31.1000 -57.0167
31.1167 -58.0167
31.1333 -59.0167
31.1500 -60.0167
31.1667 -61.0167
31.1833 -62.0167
31.2000 -63.0167
31.2167 -64.0167
31.2333 -65.0167
31.2500 -66.0167
31.2667 -67.0167
31.2833 -68.0167
31.3000 -69.0167
31.3167 -70.0167
31.3333 -71.0167
31.3500 -72.0167
31.3667 -73.0167
31.3833 -74.0167
31.4000 -75.0167
31.4167 -76.0167
31.4333 -77.0167
31.4500 -78.0167
31.4667 -79.0167
31.4833 -80.0167
31.5000 -81.0167
31.5167 -82.0167
31.5333 -83.0167
31.5500 -84.0167
31.5667 -85.0167
31.5833 -86.0167
31.6000 -87.0167
31.6167 -88.0167
31.6333 -89.0167
31.6500 -90.0167
31.6667 -91.0167
31.6833 -92.0167
31.7000 -93.0167
31.7167 -94.0167
31.7333 -95.0167
31.7500 -96.0167
31.7667 -97.0167
31.7833 -98.0167
31.8000 -99.0167
31.8167 -100.0167
31.8333 -101.0167
31.8500 -102.0167
31.8667 -103.0167
31.8833 -104.0167
31.9000 -105.0167
31.9167 -106.0167
31.9333 -107.0167
31.9500 -108.0167
31.9667 -109.0167
31.9833 -110.0167
32.0000 -109.0167
32.0167 -108.0167
32.0333 -107.0167
32.0500 -106.0167
32.0667 -105.0167
32.0833 -104.0167
32.1000 -103.0167
32.1167 -102.0167
32.1333 -101.0167
32.1500 -100.0167
32.1667 -99.0167
32.1833 -98.0167
32.2000 -97.0167
32.2167 -96.0167
32.2333 -95.0167
32.2500 -94.0167
32.2667 -93.0167
32.2833 -92.0167
32.3000 -91.0167
32.3167 -90.0167
32.3333 -89.0167
32.3500 -88.0167
32.3667 -87.0167
32.3833 -86.0167
32.4000 -85.0167
32.4167 -84.0167
32.4333 -83.0167
32.4500 -82.0167
32.4667 -81.0167
32.4833 -80.0167
32.5000 -79.0167
32.5167 -78.0167
32.5333 -77.0167
32.5500 -76.0167
32.5667 -75.0167
32.5833 -74.0167
32.6000 -73.0167
32.6167 -72.0167
32.6333 -71.0167
32.6500 -70.0167
32.6667 -69.0167
32.6833 -68.0167
32.7000 -67.0167
32.7167 -66.0167
32.7333 -65.0167
32.7500 -64.0167
32.7667 -63.0167
32.7833 -62.0167
32.8000 -61.0167
32.8167 -60.0167
32.8333 -59.0167
32.8500 -58.0167
32.8667 -57.0167
32.8833 -56.0167
32.9000 -55.0167
32.9167 -54.0167
32.9333 -53.0167
32.9500 -52.0167
32.9667 -51.0167
32.9833 -50.0167
33.0000 -49.0167
33.0167 -48.0167
33.0333 -47.0167
33.0500 -46.0167
33.0667 -45.0167
33.0833 -44.0167
33.1000 -43.0167
33.1167 -42.0167
33.1333 -41.0167
33.1500 -40.0167
33.1667 -39.0167
33.1833 -38.0167
33.2000 -37.0167
33.2167 -36.0167
33.2333 -35.0167
33.2500 -34.0167
33.2667 -33.0167
33.2833 -32.0167
33.3000 -31.0167
33.3167 -30.0167
33.3333 -29.0167
33.3500 -28.0167
33.3667 -27.0167
33.3833 -26.0167
33.4000 -25.0167
33.4167 -24.0167
33.4333 -23.0167
33.4500 -22.0167
33.4667 -21.0167
33.4833 -20.0167
33.5000 -19.0167
33.5167 -18.0167
33.5333 -17.0167
33.5500 -16.0167
33.5667 -15.0167
33.5833 -14.0167
33.6000 -13.0167
33.6167 -12.0167
33.6333 -11.0167
33.6500 -10.0167
33.6667 -9.0167
33.6833 -8.0167
33.7000 -7.0167
33.7167 -6.0167
33.7333 -5.0167
33.7500 -4.0167
33.7667 -3.0167
33.7833 -2.0167
33.8000 -1.0167
33.8167 -0.0167
33.8333 0.9833
33.8500 1.9833
33.8667 2.9833
33.8833 3.9833
33.9000 4.9833
33.9167 5.9833
33.9333 6.9833
33.9500 7.9833
33.9667 8.9833
33.9833 9.9833
34.0000 8.9833
34.0167 7.9833
34.0333 6.9833
34.0500 5.9833
34.0667 4.9833
34.0833 3.9833
34.1000 2.9833
34.1167 1.9833
34.1333 0.9833
34.1500 -0.0167
34.1667 -1.0167
34.1833 -2.0167
34.2000 -3.0167
34.2167 -4.0167
34.2333 -5.0167
34.2500 -6.0167
34.2667 -7.0167
34.2833 -8.0167
34.3000 -9.0167
34.3167 -10.0167
34.3333 -11.0167
34.3500 -12.0167
34.3667 -13.0167
34.3833 -14.0167
34.4000 -15.0167
34.4167 -16.0167
34.4333 -17.0167
34.4500 -18.0167
34.4667 -19.0167
34.4833 -20.0167
34.5000 -21.0167
34.5167 -22.0167
34.5333 -23.0167
34.5500 -24.0167
34.5667 -25.0167
34.5833 -26.0167
34.6000 -27.0167
34.6167 -28.0167
34.6333 -29.0167
34.6500 -30.0167
34.6667 -31.0167
34.6833 -32.0167
34.7000 -33.0167
34.7167 -34.0167
34.7333 -35.0167
34.7500 -36.0167
34.7667 -37.0167
34.7833 -38.0167
34.8000 -39.0167
34.8167 -40.0167
34.8333 -41.0167
34.8500 -42.0167
34.8667 -43.0167
34.8833 -44.0167
34.9000 -45.0167
34.9167 -46.0167
34.9333 -47.0167
34.9500 -48.0167
34.9667 -49.0167
34.9833 -50.0167
35.0000 -51.0167
35.0167 -52.0167
35.0333 -53.0167
35.0500 -54.0167
35.0667 -55.0167
35.0833 -56.0167
35.1000 -57.0167
35.1167 -58.0167
35.1333 -59.0167
35.1500 -60.0167
35.1667 -61.0167
35.1833 -62.0167
35.2000 -63.0167
35.2167 -64.0167
35.2333 -65.0167
35.2500 -66.0167
35.2667 -67.0167
35.2833 -68.0167
35.3000 -69.0167
35.3167 -70.0167
35.3333 -71.0167
35.3500 -72.0167
35.3667 -73.0167
35.3833 -74.0167
35.4000 -75.0167
35.4167 -76.0167
35.4333 -77.0167
35.4500 -78.0167
35.4667 -79.0167
35.4833 -80.0167
35.5000 -81.0167
35.5167 -82.0167
35.5333 -83.0167
35.5500 -84.0167
35.5667 -85.0167
35.5833 -86.0167
35.6000 -87.0167
35.6167 -88.0167
35.6333 -89.0167
35.6500 -90.0167
35.6667 -91.0167
35.6833 -92.0167
35.7000 -93.0167
35.7167 -94.0167
35.7333 -95.0167
35.7500 -96.0167
35.7667 -97.0167
35.7833 -98.0167
35.8000 -99.0167
35.8167 -100.0167
35.8333 -101.0167
35.8500 -102.0167
35.8667 -103.0167
35.8833 -104.0167
35.9000 -105.0167
35.9167 -106.0167
35.9333 -107.0167
35.9500 -108.0167
35.9667 -109.0167
35.9833 -110.0167
36.0000 -109.0167
36.0167 -108.0167
36.0333 -107.0167
36.0500 -106.0167
36.0667 -105.0167
36.0833 -104.0167
36.1000 -103.0167
36.1167 -102.0167
36.1333 -101.0167
36.1500 -100.0167
36.1667 -99.0167
36.1833 -98.0167
36.2000 -97.0167
36.2167 -96.0167
36.2333 -95.0167
36.2500 -94.0167
36.2667 -93.0167
36.2833 -92.0167
36.3000 -91.0167
36.3167 -90.0167
36.3333 -89.0167
36.3500 -88.0167
36.3667 -87.0167
36.3833 -86.0167
36.4000 -85.0167
36.4167 -84.0167
36.4333 -83.0167
36.4500 -82.0167
36.4667 -81.0167
36.4833 -80.0167
36.5000 -79.0167
36.5167 -78.0167
36.5333 -77.0167
36.5500 -76.0167
36.5667 -75.0167
36.5833 -74.0167
36.6000 -73.0167
36.6167 -72.0167
36.6333 -71.0167
36.6500 -70.0167
36.6667 -69.0167
36.6833 -68.0167
36.7000 -67.0167
36.7167 -66.0167
36.7333 -65.0167
36.7500 -64.0167
36.7667 -63.0167
36.7833 -62.0167
36.8000 -61.0167
36.8167 -60.0167
36.8333 -59.0167
36.8500 -58.0167
36.8667 -57.0167
36.8833 -56.0167
36.9000 -55.0167
36.9167 -54.0167
36.9333 -53.0167
36.9500 -52.0167
36.9667 -51.0167
36.9833 -50.0167
37.0000 -49.0167
37.0167 -48.0167
37.0333 -47.0167
37.0500 -46.0167
37.0667 -45.0167
37.0833 -44.0167
37.1000 -43.0167
37.1167 -42.0167
37.1333 -41.0167
37.1500 -40.0167
37.1667 -39.0167
37.1833 -38.0167
37.2000 -37.0167
37.2167 -36.0167
37.2333 -35.0167
37.2500 -34.0167
37.2667 -33.0167
37.2833 -32.0167
37.3000 -31.0167
37.3167 -30.0167
37.3333 -29.0167
37.3500 -28.0167
37.3667 -27.0167
37.3833 -26.0167
37.4000 -25.0167
37.4167 -24.0167
37.4333 -23.0167
37.4500 -22.0167
37.4667 -21.0167
37.4833 -20.0167
37.5000 -19.0167
37.5167 -18.0167
37.5333 -17.0167
37.5500 -16.0167
37.5667 -15.0167
37.5833 -14.0167
37.6000 -13.0167
37.6167 -12.0167
37.6333 -11.0167
37.6500 -10.0167
37.6667 -9.0167
37.6833 -8.0167
37.7000 -7.0167
37.7167 -6.0167
37.7333 -5.0167
37.7500 -4.0167
37.7667 -3.0167
37.7833 -2.0167
37.8000 -1.0167
37.8167 -0.0167
37.8333 0.9833
37.8500 1.9833
37.8667 2.9833
37.8833 3.9833
37.9000 4.9833
37.9167 5.9833
37.9333 6.9833
37.9500 7.9833
37.9667 8.9833
37.9833 9.9833
38.0000 8.9833
38.0167 7.9833
38.0333 6.9833
38.0500 5.9833
38.0667 4.9833
38.0833 3.9833
38.1000 2.9833
38.1167 1.9833
38.1333 0.9833
38.1500 -0.0167
38.1667 -1.0167
38.1833 -2.0167
38.2000 -3.0167
38.2167 -4.0167
38.2333 -5.0167
38.2500 -6.0167
38.2667 -7.0167
38.2833 -8.0167
38.3000 -9.0167
38.3167 -10.0167
38.3333 -11.0167
38.3500 -12.0167
38.3667 -13.0167
38.3833 -14.0167
38.4000 -15.0167
38.4167 -16.0167
38.4333 -17.0167
38.4500 -18.0167
38.4667 -19.0167
38.4833 -20.0167
38.5000 -21.0167
38.5167 -22.0167
38.5333 -23.0167
38.5500 -24.0167
38.5667 -25.0167
38.5833 -26.0167
38.6000 -27.0167
38.6167 -28.0167
38.6333 -29.0167
38.6500 -30.0167
38.6667 -31.0167
38.6833 -32.0167
38.7000 -33.0167
38.7167 -34.0167
38.7333 -35.0167
38.7500 -36.0167
38.7667 -37.0167
38.7833 -38.0167
38.8000 -39.0167
38.8167 -40.0167
38.8333 -41.0167
38.8500 -42.0167
38.8667 -43.0167
38.8833 -44.0167
38.9000 -45.0167
38.9167 -46.0167
38.9333 -47.0167
38.9500 -48.0167
38.9667 -49.0167
38.9833 -50.0167
39.0000 -51.0167
39.0167 -52.0167
39.0333 -53.0167
39.0500 -54.0167
39.0667 -55.0167
39.0833 -56.0167
39.1000 -57.0167
39.1167 -58.0167
39.1333 -59.0167
39.1500 -60.0167
39.1667 -61.0167
39.1833 -62.0167
39.2000 -63.0167
39.2167 -64.0167
39.2333 -65.0167
39.2500 -66.0167
39.2667 -67.0167
39.2833 -68.0167
39.3000 -69.0167
39.3167 -70.0167
39.3333 -71.0167
39.3500 -72.0167
39.3667 -73.0167
39.3833 -74.0167
39.4000 -75.0167
39.4167 -76.0167
39.4333 -77.0167
39.4500 -78.0167
39.4667 -79.0167
39.4833 -80.0167
39.5000 -81.0167
39.5167 -82.0167
39.5333 -83.0167
39.5500 -84.0167
39.5667 -85.0167
39.5833 -86.0167
39.6000 -87.0167
39.6167 -88.0167
39.6333 -89.0167
39.6500 -90.0167
39.6667 -91.0167
39.6833 -92.0167
39.7000 -93.0167
39.7167 -94.0167
39.7333 -95.0167
39.7500 -96.0167
39.7667 -97.0167
39.7833 -98.0167
39.8000 -99.0167
39.8167 -100.0167
39.8333 -101.0167
39.8500 -102.0167
39.8667 -103.0167
39.8833 -104.0167
39.9000 -105.0167
39.9167 -106.0167
39.9333 -107.0167
39.9500 -108.0167
39.9667 -109.0167
39.9833 -110.0167
40.0000 -109.0167
40.0167 -108.0167
40.0333 -107.0167
40.0500 -106.0167
40.0667 -105.0167
40.0833 -104.0167
40.1000 -103.0167
40.1167 -102.0167
40.1333 -101.0167
40.1500 -100.0167
40.1667 -99.0167
40.1833 -98.0167
40.2000 -97.0167
40.2167 -96.0167
40.2333 -95.0167
40.2500 -94.0167
40.2667 -93.0167
40.2833 -92.0167
40.3000 -91.0167
40.3167 -90.0167
40.3333 -89.0167
40.3500 -88.0167
40.3667 -87.0167
40.3833 -86.0167
40.4000 -85.0167
40.4167 -84.0167
40.4333 -83.0167
40.4500 -82.0167
40.4667 -81.0167
40.4833 -80.0167
40.5000 -79.0167
40.5167 -78.0167
40.5333 -77.0167
40.5500 -76.0167
40.5667 -75.0167
40.5833 -74.0167
40.6000 -73.0167
40.6167 -72.0167
40.6333 -71.0167
40.6500 -70.0167
40.6667 -69.0167
40.6833 -68.0167
40.7000 -67.0167
40.7167 -66.0167
40.7333 -65.0167
40.7500 -64.0167
40.7667 -63.0167
40.7833 -62.0167
40.8000 -61.0167
40.8167 -60.0167
40.8333 -59.0167
40.8500 -58.0167
40.8667 -57.0167
40.8833 -56.0167
40.9000 -55.0167
40.9167 -54.0167
40.9333 -53.0167
40.9500 -52.0167
40.9667 -51.0167
40.9833 -50.0167
41.0000 -49.0167
41.0167 -48.0167
41.0333 -47.0167
41.0500 -46.0167
41.0667 -45.0167
41.0833 -44.0167
41.1000 -43.0167
41.1167 -42.0167
41.1333 -41.0167
41.1500 -40.0167
41.1667 -39.0167
41.1833 -38.0167
41.2000 -37.0167
41.2167 -36.0167
41.2333 -35.0167
41.2500 -34.0167
41.2667 -33.0167
41.2833 -32.0167
41.3000 -31.0167
41.3167 -30.0167
41.3333 -29.0167
41.3500 -28.0167
41.3667 -27.0167
41.3833 -26.0167
41.4000 -25.0167
41.4167 -24.0167
41.4333 -23.0167
41.4500 -22.0167
41.4667 -21.0167
41.4833 -20.0167
41.5000 -19.0167
41.5167 -18.0167
41.5333 -17.0167
41.5500 -16.0167
41.5667 -15.0167
41.5833 -14.0167
41.6000 -13.0167
41.6167 -12.0167
41.6333 -11.0167
41.6500 -10.0167
41.6667 -9.0167
41.6833 -8.0167
41.7000 -7.0167
41.7167 -6.0167
41.7333 -5.0167
41.7500 -4.0167
41.7667 -3.0167
41.7833 -2.0167
41.8000 -1.0167
41.8167 -0.0167
41.8333 0.9833
41.8500 1.9833
41.8667 2.9833
41.8833 3.9833
41.9000 4.9833
41.9167 5.9833
41.9333 6.9833
41.9500 7.9833
41.9667 8.9833
41.9833 9.9833
42.0000 8.9833
42.0167 7.9833
42.0333 6.9833
42.0500 5.9833
42.0667 4.9833
42.0833 3.9833
42.1000 2.9833
42.1167 1.9833
42.1333 0.9833
42.1500 -0.0167
42.1667 -1.0167
42.1833 -2.0167
42.2000 -3.0167
42.2167 -4.0167
42.2333 -5.0167
42.2500 -6.0167
42.2667 -7.0167
42.2833 -8.0167
42.3000 -9.0167
42.3167 -10.0167
42.3333 -11.0167
42.3500 -12.0167
42.3667 -13.0167
42.3833 -14.0167
42.4000 -15.0167
42.4167 -16.0167
42.4333 -17.0167
42.4500 -18.0167
42.4667 -19.0167
42.4833 -20.0167
42.5000 -21.0167
42.5167 -22.0167
42.5333 -23.0167
42.5500 -24.0167
42.5667 -25.0167
42.5833 -26.0167
42.6000 -27.0167
42.6167 -28.0167
42.6333 -29.0167
42.6500 -30.0167
42.6667 -31.0167
42.6833 -32.0167
42.7000 -33.0167
42.7167 -34.0167
42.7333 -35.0167
42.7500 -36.0167
42.7667 -37.0167
42.7833 -38.0167
42.8000 -39.0167
42.8167 -40.0167
42.8333 -41.0167
42.8500 -42.0167
42.8667 -43.0167
42.8833 -44.0167
42.9000 -45.0167
42.9167 -46.0167
42.9333 -47.0167
42.9500 -48.0167
42.9667 -49.0167
42.9833 -50.0167
43.0000 -51.0167
43.0167 -52.0167
43.0333 -53.0167
43.0500 -54.0167
43.0667 -55.0167
43.0833 -56.0167
43.1000 -57.0167
43.1167 -58.0167
43.1333 -59.0167
43.1500 -60.0167
43.1667 -61.0167
43.1833 -62.0167
43.2000 -63.0167
43.2167 -64.0167
43.2333 -65.0167
43.2500 -66.0167
43.2667 -67.0167
43.2833 -68.0167
43.3000 -69.0167
43.3167 -70.0167
43.3333 -71.0167
43.3500 -72.0167
43.3667 -73.0167
43.3833 -74.0167
43.4000 -75.0167
43.4167 -76.0167
43.4333 -77.0167
43.4500 -78.0167
43.4667 -79.0167
43.4833 -80.0167
43.5000 -81.0167
43.5167 -82.0167
43.5333 -83.0167
43.5500 -84.0167
43.5667 -85.0167
43.5833 -86.0167
43.6000 -87.0167
43.6167 -88.0167
43.6333 -89.0167
43.6500 -90.0167
43.6667 -91.0167
43.6833 -92.0167
43.7000 -93.0167
43.7167 -94.0167
43.7333 -95.0167
43.7500 -96.0167
43.7667 -97.0167
43.7833 -98.0167
43.8000 -99.0167
43.8167 -100.0167
43.8333 -101.0167
43.8500 -102.0167
43.8667 -103.0167
43.8833 -104.0167
43.9000 -105.0167
43.9167 -106.0167
43.9333 -107.0167
43.9500 -108.0167
43.9667 -109.0167
43.9833 -110.0167
44.0000 -109.0167
44.0167 -108.0167
44.0333 -107.0167
44.0500 -106.0167
44.0667 -105.0167
44.0833 -104.0167
44.1000 -103.0167
44.1167 -102.0167
44.1333 -101.0167
44.1500 -100.0167
44.1667 -99.0167
44.1833 -98.0167
44.2000 -97.0167
44.2167 -96.0167
44.2333 -95.0167
44.2500 -94.0167
44.2667 -93.0167
44.2833 -92.0167
44.3000 -91.0167
44.3167 -90.0167
44.3333 -89.0167
44.3500 -88.0167
44.3667 -87.0167
44.3833 -86.0167
44.4000 -85.0167
44.4167 -84.0167
44.4333 -83.0167
44.4500 -82.0167
44.4667 -81.0167
44.4833 -80.0167
44.5000 -79.0167
44.5167 -78.0167
44.5333 -77.0167
44.5500 -76.0167
44.5667 -75.0167
44.5833 -74.0167
44.6000 -73.0167
44.6167 -72.0167
44.6333 -71.0167
44.6500 -70.0167
44.6667 -69.0167
44.6833 -68.0167
44.7000 -67.0167
44.7167 -66.0167
44.7333 -65.0167
44.7500 -64.0167
44.7667 -63.0167
44.7833 -62.0167
44.8000 -61.0167
44.8167 -60.0167
44.8333 -59.0167
44.8500 -58.0167
44.8667 -57.0167
44.8833 -56.0167
44.9000 -55.0167
44.9167 -54.0167
44.9333 -53.0167
44.9500 -52.0167
44.9667 -51.0167
44.9833 -50.0167
45.0000 -49.0167
45.0167 -48.0167
45.0333 -47.0167
45.0500 -46.0167
45.0667 -45.0167
45.0833 -44.0167
45.1000 -43.0167
45.1167 -42.0167
45.1333 -41.0167
45.1500 -40.0167
45.1667 -39.0167
45.1833 -38.0167
45.2000 -37.0167
45.2167 -36.0167
45.2333 -35.0167
45.2500 -34.0167
45.2667 -33.0167
45.2833 -32.0167
45.3000 -31.0167
45.3167 -30.0167
45.3333 -29.0167
45.3500 -28.0167
45.3667 -27.0167
45.3833 -26.0167
45.4000 -25.0167
45.4167 -24.0167
45.4333 -23.0167
45.4500 -22.0167
45.4667 -21.0167
45.4833 -20.0167
45.5000 -19.0167
45.5167 -18.0167
45.5333 -17.0167
45.5500 -16.0167
45.5667 -15.0167
45.5833 -14.0167
45.6000 -13.0167
45.6167 -12.0167
45.6333 -11.0167
45.6500 -10.0167
45.6667 -9.0167
45.6833 -8.0167
45.7000 -7.0167
45.7167 -6.0167
45.7333 -5.0167
45.7500 -4.0167
45.7667 -3.0167
45.7833 -2.0167
45.8000 -1.0167
45.8167 -0.0167
45.8333 0.9833
45.8500 1.9833
45.8667 2.9833
45.8833 3.9833
45.9000 4.9833
45.9167 5.9833
45.9333 6.9833
45.9500 7.9833
45.9667 8.9833
45.9833 9.9833
46.0000 8.9833
46.0167 7.9833
46.0333 6.9833
46.0500 5.9833
46.0667 4.9833
46.0833 3.9833
46.1000 2.9833
46.1167 1.9833
46.1333 0.9833
46.1500 -0.0167
46.1667 -1.0167
46.1833 -2.0167
46.2000 -3.0167
46.2167 -4.0167
46.2333 -5.0167
46.2500 -6.0167
46.2667 -7.0167
46.2833 -8.0167
46.3000 -9.0167
46.3167 -10.0167
46.3333 -11.0167
46.3500 -12.0167
46.3667 -13.0167
46.3833 -14.0167
46.4000 -15.0167
46.4167 -16.0167
46.4333 -17.0167
46.4500 -18.0167
46.4667 -19.0167
46.4833 -20.0167
46.5000 -21.0167
46.5167 -22.0167
46.5333 -23.0167
46.5500 -24.0167
46.5667 -25.0167
46.5833 -26.0167
46.6000 -27.0167
46.6167 -28.0167
46.6333 -29.0167
46.6500 -30.0167
46.6667 -31.0167
46.6833 -32.0167
46.7000 -33.0167
46.7167 -34.0167
46.7333 -35.0167
46.7500 -36.0167
46.7667 -37.0167
46.7833 -38.0167
46.8000 -39.0167
46.8167 -40.0167
46.8333 -41.0167
46.8500 -42.0167
46.8667 -43.0167
46.8833 -44.0167
46.9000 -45.0167
46.9167 -46.0167
46.9333 -47.0167
46.9500 -48.0167
46.9667 -49.0167
46.9833 -50.0167
47.0000 -51.0167
47.0167 -52.0167
47.0333 -53.0167
47.0500 -54.0167
47.0667 -55.0167
47.0833 -56.0167
47.1000 -57.0167
47.1167 -58.0167
47.1333 -59.0167
47.1500 -60.0167
47.1667 -61.0167
47.1833 -62.0167
47.2000 -63.0167
47.2167 -64.0167
47.2333 -65.0167
47.2500 -66.0167
47.2667 -67.0167
47.2833 -68.0167
47.3000 -69.0167
47.3167 -70.0167
47.3333 -71.0167
47.3500 -72.0167
47.3667 -73.0167
47.3833 -74.0167
47.4000 -75.0167
47.4167 -76.0167
47.4333 -77.0167
47.4500 -78.0167
47.4667 -79.0167
47.4833 -80.0167
47.5000 -81.0167
47.5167 -82.0167
47.5333 -83.0167
47.5500 -84.0167
47.5667 -85.0167
47.5833 -86.0167
47.6000 -87.0167
47.6167 -88.0167
47.6333 -89.0167
47.6500 -90.0167
47.6667 -91.0167
47.6833 -92.0167
47.7000 -93.0167
47.7167 -94.0167
47.7333 -95.0167
47.7500 -96.0167
47.7667 -97.0167
47.7833 -98.0167
47.8000 -99.0167
47.8167 -100.0167
47.8333 -101.0167
47.8500 -102.0167
47.8667 -103.0167
47.8833 -104.0167
47.9000 -105.0167
47.9167 -106.0167
47.9333 -107.0167
47.9500 -108.0167
47.9667 -109.0167
47.9833 -110.0167
48.0000 -109.0167
48.0167 -108.0167
48.0333 -107.0167
48.0500 -106.0167
48.0667 -105.0167
48.0833 -104.0167
48.1000 -103.0167
48.1167 -102.0167
48.1333 -101.0167
48.1500 -100.0167
48.1667 -99.0167
48.1833 -98.0167
48.2000 -97.0167
48.2167 -96.0167
48.2333 -95.0167
48.2500 -94.0167
48.2667 -93.0167
48.2833 -92.0167
48.3000 -91.0167
48.3167 -90.0167
48.3333 -89.0167
48.3500 -88.0167
48.3667 -87.0167
48.3833 -86.0167
48.4000 -85.0167
48.4167 -84.0167
48.4333 -83.0167
48.4500 -82.0167
48.4667 -81.0167
48.4833 -80.0167
48.5000 -79.0167
48.5167 -78.0167
48.5333 -77.0167
48.5500 -76.0167
48.5667 -75.0167
48.5833 -74.0167
48.6000 -73.0167
48.6167 -72.0167
48.6333 -71.0167
48.6500 -70.0167
48.6667 -69.0167
48.6833 -68.0167
48.7000 -67.0167
48.7167 -66.0167
48.7333 -65.0167
48.7500 -64.0167
48.7667 -63.0167
48.7833 -62.0167
48.8000 -61.0167
48.8167 -60.0167
48.8333 -59.0167
48.8500 -58.0167
48.8667 -57.0167
48.8833 -56.0167
48.9000 -55.0167
48.9167 -54.0167
48.9333 -53.0167
48.9500 -52.0167
48.9667 -51.0167
48.9833 -50.0167
49.0000 -49.0167
49.0167 -48.0167
49.0333 -47.0167
49.0500 -46.0167
49.0667 -45.0167
49.0833 -44.0167
49.1000 -43.0167
49.1167 -42.0167
49.1333 -41.0167
49.1500 -40.0167
49.1667 -39.0167
49.1833 -38.0167
49.2000 -37.0167
49.2167 -36.0167
49.2333 -35.0167
49.2500 -34.0167
49.2667 -33.0167
49.2833 -32.0167
49.3000 -31.0167
49.3167 -30.0167
49.3333 -29.0167
49.3500 -28.0167
49.3667 -27.0167
49.3833 -26.0167
49.4000 -25.0167
49.4167 -24.0167
49.4333 -23.0167
49.4500 -22.0167
49.4667 -21.0167
49.4833 -20.0167
49.5000 -19.0167
49.5167 -18.0167
49.5333 -17.0167
49.5500 -16.0167
49.5667 -15.0167
49.5833 -14.0167
49.6000 -13.0167
49.6167 -12.0167
49.6333 -11.0167
49.6500 -10.0167
49.6667 -9.0167
49.6833 -8.0167
49.7000 -7.0167
49.7167 -6.0167
49.7333 -5.0167
49.7500 -4.0167
49.7667 -3.0167
49.7833 -2.0167
49.8000 -1.0167
49.8167 -0.0167
49.8333 0.9833
49.8500 1.9833
49.8667 2.9833
49.8833 3.9833
49.9000 4.9833
49.9167 5.9833
49.9333 6.9833
49.9500 7.9833
49.9667 8.9833
49.9833 9.9833
50.0000 8.9833
50.0167 7.9833
50.0333 6.9833
50.0500 5.9833
50.0667 4.9833
50.0833 3.9833
50.1000 2.9833
50.1167 1.9833
50.1333 0.9833
50.1500 -0.0167
50.1667 -1.0167
50.1833 -2.0167
50.2000 -3.0167
50.2167 -4.0167
50.2333 -5.0167
50.2500 -6.0167
50.2667 -7.0167
50.2833 -8.0167
50.3000 -9.0167
50.3167 -10.0167
50.3333 -11.0167
50.3500 -12.0167
50.3667 -13.0167
50.3833 -14.0167
50.4000 -15.0167
50.4167 -16.0167
50.4333 -17.0167
50.4500 -18.0167
50.4667 -19.0167
50.4833 -20.0167
50.5000 -21.0167
50.5167 -22.0167
50.5333 -23.0167
50.5500 -24.0167
50.5667 -25.0167
50.5833 -26.0167
50.6000 -27.0167
50.6167 -28.0167
50.6333 -29.0167
50.6500 -30.0167
50.6667 -31.0167
50.6833 -32.0167
50.7000 -33.0167
50.7167 -34.0167
50.7333 -35.0167
50.7500 -36.0167
50.7667 -37.0167
50.7833 -38.0167
50.8000 -39.0167
50.8167 -40.0167
50.8333 -41.0167
50.8500 -42.0167
50.8667 -43.0167
50.8833 -44.0167
50.9000 -45.0167
50.9167 -46.0167
50.9333 -47.0167
50.9500 -48.0167
50.9667 -49.0167
50.9833 -50.0167
51.0000 -51.0167
51.0167 -52.0167
51.0333 -53.0167
51.0500 -54.0167
51.0667 -55.0167
51.0833 -56.0167
51.1000 -57.0167
51.1167 -58.0167
51.1333 -59.0167
51.1500 -60.0167
51.1667 -61.0167
51.1833 -62.0167
51.2000 -63.0167
51.2167 -64.0167
51.2333 -65.0167
51.2500 -66.0167
51.2667 -67.0167
51.2833 -68.0167
51.3000 -69.0167
51.3167 -70.0167
51.3333 -71.0167
51.3500 -72.0167
51.3667 -73.0167
51.3833 -74.0167
51.4000 -75.0167
51.4167 -76.0167
51.4333 -77.0167
51.4500 -78.0167
51.4667 -79.0167
51.4833 -80.0167
51.5000 -81.0167
51.5167 -82.0167
51.5333 -83.0167
51.5500 -84.0167
51.5667 -85.0167
51.5833 -86.0167
51.6000 -87.0167
51.6167 -88.0167
51.6333 -89.0167
51.6500 -90.0167
51.6667 -91.0167
51.6833 -92.0167
51.7000 -93.0167
51.7167 -94.0167
51.7333 -95.0167
51.7500 -96.0167
51.7667 -97.0167
51.7833 -98.0167
51.8000 -99.0167
51.8167 -100.0167
51.8333 -101.0167
51.8500 -102.0167
51.8667 -103.0167
51.8833 -104.0167
51.9000 -105.0167
51.9167 -106.0167
51.9333 -107.0167
51.9500 -108.0167
51.9667 -109.0167
51.9833 -110.0167
52.0000 -109.0167
52.0167 -108.0167
52.0333 -107.0167
52.0500 -106.0167
52.0667 -105.0167
52.0833 -104.0167
52.1000 -103.0167
52.1167 -102.0167
52.1333 -101.0167
52.1500 -100.0167
52.1667 -99.0167
52.1833 -98.0167
52.2000 -97.0167
52.2167 -96.0167
52.2333 -95.0167
52.2500 -94.0167
52.2667 -93.0167
52.2833 -92.0167
52.3000 -91.0167
52.3167 -90.0167
52.3333 -89.0167
52.3500 -88.0167
52.3667 -87.0167
52.3833 -86.0167
52.4000 -85.0167
52.4167 -84.0167
52.4333 -83.0167
52.4500 -82.0167
52.4667 -81.0167
52.4833 -80.0167
52.5000 -79.0167
52.5167 -78.0167
52.5333 -77.0167
52.5500 -76.0167
52.5667 -75.0167
52.5833 -74.0167
52.6000 -73.0167
52.6167 -72.0167
52.6333 -71.0167
52.6500 -70.0167
52.6667 -69.0167
52.6833 -68.0167
52.7000 -67.0167
52.7167 -66.0167
52.7333 -65.0167
52.7500 -64.0167
52.7667 -63.0167
52.7833 -62.0167
52.8000 -61.0167
52.8167 -60.0167
52.8333 -59.0167
52.8500 -58.0167
52.8667 -57.0167
52.8833 -56.0167
52.9000 -55.0167
52.9167 -54.0167
52.9333 -53.0167
52.9500 -52.0167
52.9667 -51.0167
52.9833 -50.0167
53.0000 -49.0167
53.0167 -48.0167
53.0333 -47.0167
53.0500 -46.0167
53.0667 -45.0167
53.0833 -44.0167
53.1000 -43.0167
53.1167 -42.0167
53.1333 -41.0167
53.1500 -40.0167
53.1667 -39.0167
53.1833 -38.0167
53.2000 -37.0167
53.2167 -36.0167
53.2333 -35.0167
53.2500 -34.0167
53.2667 -33.0167
53.2833 -32.0167
53.3000 -31.0167
53.3167 -30.0167
53.3333 -29.0167
53.3500 -28.0167
53.3667 -27.0167
53.3833 -26.0167
53.4000 -25.0167
53.4167 -24.0167
53.4333 -23.0167
53.4500 -22.0167
53.4667 -21.0167
53.4833 -20.0167
53.5000 -19.0167
53.5167 -18.0167
53.5333 -17.0167
53.5500 -16.0167
53.5667 -15.0167
53.5833 -14.0167
53.6000 -13.0167
53.6167 -12.0167
53.6333 -11.0167
53.6500 -10.0167
53.6667 -9.0167
53.6833 -8.0167
53.7000 -7.0167
53.7167 -6.0167
53.7333 -5.0167
53.7500 -4.0167
53.7667 -3.0167
53.7833 -2.0167
53.8000 -1.0167
53.8167 -0.0167
53.8333 0.9833
53.8500 1.9833
53.8667 2.9833
53.8833 3.9833
53.9000 4.9833
53.9167 5.9833
53.9333 6.9833
53.9500 7.9833
53.9667 8.9833
53.9833 9.9833
54.0000 8.9833
54.0167 7.9833
54.0333 6.9833
54.0500 5.9833
54.0667 4.9833
54.0833 3.9833
54.1000 2.9833
54.1167 1.9833
54.1333 0.9833
54.1500 -0.0167
54.1667 -1.0167
54.1833 -2.0167
54.2000 -3.0167
54.2167 -4.0167
54.2333 -5.0167
54.2500 -6.0167
54.2667 -7.0167
54.2833 -8.0167
54.3000 -9.0167
54.3167 -10.0167
54.3333 -11.0167
54.3500 -12.0167
54.3667 -13.0167
54.3833 -14.0167
54.4000 -15.0167
54.4167 -16.0167
54.4333 -17.0167
54.4500 -18.0167
54.4667 -19.0167
54.4833 -20.0167
54.5000 -21.0167
54.5167 -22.0167
54.5333 -23.0167
54.5500 -24.0167
54.5667 -25.0167
54.5833 -26.0167
54.6000 -27.0167
54.6167 -28.0167
54.6333 -29.0167
54.6500 -30.0167
54.6667 -31.0167
54.6833 -32.0167
54.7000 -33.0167
54.7167 -34.0167
54.7333 -35.0167
54.7500 -36.0167
54.7667 -37.0167
54.7833 -38.0167
54.8000 -39.0167
54.8167 -40.0167
54.8333 -41.0167
54.8500 -42.0167
54.8667 -43.0167
54.8833 -44.0167
54.9000 -45.0167
54.9167 -46.0167
54.9333 -47.0167
54.9500 -48.0167
54.9667 -49.0167
54.9833 -50.0167
55.0000 -51.0167
55.0167 -52.0167
55.0333 -53.0167
55.0500 -54.0167
55.0667 -55.0167
55.0833 -56.0167
55.1000 -57.0167
55.1167 -58.0167
55.1333 -59.0167
55.1500 -60.0167
55.1667 -61.0167
55.1833 -62.0167
55.2000 -63.0167
55.2167 -64.0167
55.2333 -65.0167
55.2500 -66.0167
55.2667 -67.0167
55.2833 -68.0167
55.3000 -69.0167
55.3167 -70.0167
55.3333 -71.0167
55.3500 -72.0167
55.3667 -73.0167
55.3833 -74.0167
55.4000 -75.0167
55.4167 -76.0167
55.4333 -77.0167
55.4500 -78.0167
55.4667 -79.0167
55.4833 -80.0167
55.5000 -81.0167
55.5167 -82.0167
55.5333 -83.0167
55.5500 -84.0167
55.5667 -85.0167
55.5833 -86.0167
55.6000 -87.0167
55.6167 -88.0167
55.6333 -89.0167
55.6500 -90.0167
55.6667 -91.0167
55.6833 -92.0167
55.7000 -93.0167
55.7167 -94.0167
55.7333 -95.0167
55.7500 -96.0167
55.7667 -97.0167
55.7833 -98.0167
55.8000 -99.0167
55.8167 -100.0167
55.8333 -101.0167
55.8500 -102.0167
55.8667 -103.0167
55.8833 -104.0167
55.9000 -105.0167
55.9167 -106.0167
55.9333 -107.0167
55.9500 -108.0167
55.9667 -109.0167
55.9833 -110.0167
56.0000 -109.0167
56.0167 -108.0167
56.0333 -107.0167
56.0500 -106.0167
56.0667 -105.0167
56.0833 -104.0167
56.1000 -103.0167
56.1167 -102.0167
56.1333 -101.0167
56.1500 -100.0167
56.1667 -99.0167
56.1833 -98.0167
56.2000 -97.0167
56.2167 -96.0167
56.2333 -95.0167
56.2500 -94.0167
56.2667 -93.0167
56.2833 -92.0167
56.3000 -91.0167
56.3167 -90.0167
56.3333 -89.0167
56.3500 -88.0167
56.3667 -87.0167
56.3833 -86.0167
56.4000 -85.0167
56.4167 -84.0167
56.4333 -83.0167
56.4500 -82.0167
56.4667 -81.0167
56.4833 -80.0167
56.5000 -79.0167
56.5167 -78.0167
56.5333 -77.0167
56.5500 -76.0167
56.5667 -75.0167
56.5833 -74.0167
56.6000 -73.0167
56.6167 -72.0167
56.6333 -71.0167
56.6500 -70.0167
56.6667 -69.0167
56.6833 -68.0167
56.7000 -67.0167
56.7167 -66.0167
56.7333 -65.0167
56.7500 -64.0167
56.7667 -63.0167
56.7833 -62.0167
56.8000 -61.0167
56.8167 -60.0167
56.8333 -59.0167
56.8500 -58.0167
56.8667 -57.0167
56.8833 -56.0167
56.9000 -55.0167
56.9167 -54.0167
56.9333 -53.0167
56.9500 -52.0167
56.9667 -51.0167
56.9833 -50.0167
57.0000 -49.0167
57.0167 -48.0167
57.0333 -47.0167
57.0500 -46.0167
57.0667 -45.0167
57.0833 -44.0167
57.1000 -43.0167
57.1167 -42.0167
57.1333 -41.0167
57.1500 -40.0167
57.1667 -39.0167
57.1833 -38.0167
57.2000 -37.0167
57.2167 -36.0167
57.2333 -35.0167
57.2500 -34.0167
57.2667 -33.0167
57.2833 -32.0167
57.3000 -31.0167
57.3167 -30.0167
57.3333 -29.0167
57.3500 -28.0167
57.3667 -27.0167
57.3833 -26.0167
57.4000 -25.0167
57.4167 -24.0167
57.4333 -23.0167
57.4500 -22.0167
57.4667 -21.0167
57.4833 -20.0167
57.5000 -19.0167
57.5167 -18.0167
57.5333 -17.0167
57.5500 -16.0167
57.5667 -15.0167
57.5833 -14.0167
57.6000 -13.0167
57.6167 -12.0167
57.6333 -11.0167
57.6500 -10.0167
57.6667 -9.0167
57.6833 -8.0167
57.7000 -7.0167
57.7167 -6.0167
57.7333 -5.0167
57.7500 -4.0167
57.7667 -3.0167
57.7833 -2.0167
57.8000 -1.0167
57.8167 -0.0167
57.8333 0.9833
57.8500 1.9833
57.8667 2.9833
57.8833 3.9833
57.9000 4.9833
57.9167 5.9833
57.9333 6.9833
57.9500 7.9833
57.9667 8.9833
57.9833 9.9833
58.0000 8.9833
58.0167 7.9833
58.0333 6.9833
58.0500 5.9833
58.0667 4.9833
58.0833 3.9833
58.1000 2.9833
58.1167 1.9833
58.1333 0.9833
58.1500 -0.0167
58.1667 -1.0167
58.1833 -2.0167
58.2000 -3.0167
58.2167 -4.0167
58.2333 -5.0167
58.2500 -6.0167
58.2667 -7.0167
58.2833 -8.0167
58.3000 -9.0167
58.3167 -10.0167
58.3333 -11.0167
58.3500 -12.0167
58.3667 -13.0167
58.3833 -14.0167
58.4000 -15.0167
58.4167 -16.0167
58.4333 -17.0167
58.4500 -18.0167
58.4667 -19.0167
58.4833 -20.0167
58.5000 -21.0167
58.5167 -22.0167
58.5333 -23.0167
58.5500 -24.0167
58.5667 -25.0167
58.5833 -26.0167
58.6000 -27.0167
58.6167 -28.0167
58.6333 -29.0167
58.6500 -30.0167
58.6667 -31.0167
58.6833 -32.0167
58.7000 -33.0167
58.7167 -34.0167
58.7333 -35.0167
58.7500 -36.0167
58.7667 -37.0167
58.7833 -38.0167
58.8000 -39.0167
58.8167 -40.0167
58.8333 -41.0167
58.8500 -42.0167
58.8667 -43.0167
58.8833 -44.0167
58.9000 -45.0167
58.9167 -46.0167
58.9333 -47.0167
58.9500 -48.0167
58.9667 -49.0167
58.9833 -50.0167
59.0000 -51.0167
59.0167 -52.0167
59.0333 -53.0167
59.0500 -54.0167
59.0667 -55.0167
59.0833 -56.0167
59.1000 -57.0167
59.1167 -58.0167
59.1333 -59.0167
59.1500 -60.0167
59.1667 -61.0167
59.1833 -62.0167
59.2000 -63.0167
59.2167 -64.0167
59.2333 -65.0167
59.2500 -66.0167
59.2667 -67.0167
59.2833 -68.0167
59.3000 -69.0167
59.3167 -70.0167
59.3333 -71.0167
59.3500 -72.0167
59.3667 -73.0167
59.3833 -74.0167
59.4000 -75.0167
59.4167 -76.0167
59.4333 -77.0167
59.4500 -78.0167
59.4667 -79.0167
59.4833 -80.0167
59.5000 -81.0167
59.5167 -82.0167
59.5333 -83.0167
59.5500 -84.0167
59.5667 -85.0167
59.5833 -86.0167
59.6000 -87.0167
59.6167 -88.0167
59.6333 -89.0167
59.6500 -90.0167
59.6667 -91.0167
59.6833 -92.0167
59.7000 -93.0167
59.7167 -94.0167
59.7333 -95.0167
59.7500 -96.0167
59.7667 -97.0167
59.7833 -98.0167
59.8000 -99.0167
59.8167 -100.0167
59.8333 -101.0167
59.8500 -102.0167
59.8667 -103.0167
59.8833 -104.0167
59.9000 -105.0167
59.9167 -106.0167
59.9333 -107.0167
59.9500 -108.0167
59.9667 -109.0167
59.9833 -110.0167
60.0000 -109.0167
60.0167 -108.0167
60.0333 -107.0167
60.0500 -106.0167
60.0667 -105.0167
60.0833 -104.0167
60.1000 -103.0167
60.1167 -102.0167
60.1333 -101.0167
60.1500 -100.0167
60.1667 -99.0167
60.1833 -98.0167
60.2000 -97.0167
60.2167 -96.0167
60.2333 -95.0167
60.2500 -94.0167
60.2667 -93.0167
60.2833 -92.0167
60.3000 -91.0167
60.3167 -90.0167
60.3333 -89.0167
60.3500 -88.0167
60.3667 -87.0167
60.3833 -86.0167
60.4000 -85.0167
60.4167 -84.0167
60.4333 -83.0167
60.4500 -82.0167
60.4667 -81.0167
60.4833 -80.0167
60.5000 -79.0167
60.5167 -78.0167
60.5333 -77.0167
60.5500 -76.0167
60.5667 -75.0167
60.5833 -74.0167
60.6000 -73.0167
60.6167 -72.0167
60.6333 -71.0167
60.6500 -70.0167
60.6667 -69.0167
60.6833 -68.0167
60.7000 -67.0167
60.7167 -66.0167
60.7333 -65.0167
60.7500 -64.0167
60.7667 -63.0167
60.7833 -62.0167
60.8000 -61.0167
60.8167 -60.0167
60.8333 -59.0167
60.8500 -58.0167
60.8667 -57.0167
60.8833 -56.0167
60.9000 -55.0167
60.9167 -54.0167
60.9333 -53.0167
60.9500 -52.0167
60.9667 -51.0167
60.9833 -50.0167
61.0000 -49.0167
61.0167 -48.0167
61.0333 -47.0167
61.0500 -46.0167
61.0667 -45.0167
61.0833 -44.0167
61.1000 -43.0167
61.1167 -42.0167
61.1333 -41.0167
61.1500 -40.0167
61.1667 -39.0167
61.1833 -38.0167
61.2000 -37.0167
61.2167 -36.0167
61.2333 -35.0167
61.2500 -34.0167
61.2667 -33.0167
61.2833 -32.0167
61.3000 -31.0167
61.3167 -30.0167
61.3333 -29.0167
61.3500 -28.0167
61.3667 -27.0167
61.3833 -26.0167
61.4000 -25.0167
61.4167 -24.0167
61.4333 -23.0167
61.4500 -22.0167
61.4667 -21.0167
61.4833 -20.0167
61.5000 -19.0167
61.5167 -18.0167
61.5333 -17.0167
61.5500 -16.0167
61.5667 -15.0167
61.5833 -14.0167
61.6000 -13.0167
61.6167 -12.0167
61.6333 -11.0167
61.6500 -10.0167
61.6667 -9.0167
61.6833 -8.0167
61.7000 -7.0167
61.7167 -6.0167
61.7333 -5.0167
61.7500 -4.0167
61.7667 -3.0167
61.7833 -2.0167
61.8000 -1.0167
61.8167 -0.0167
61.8333 0.9833
61.8500 1.9833
61.8667 2.9833
61.8833 3.9833
61.9000 4.9833
61.9167 5.9833
61.9333 6.9833
61.9500 7.9833
61.9667 8.9833
61.9833 9.9833
62.0000 8.9833
62.0167 7.9833
62.0333 6.9833
62.0500 5.9833
62.0667 4.9833
62.0833 3.9833
62.1000 2.9833
62.1167 1.9833
62.1333 0.9833
62.1500 -0.0167
62.1667 -1.0167
62.1833 -2.0167
62.2000 -3.0167
62.2167 -4.0167
62.2333 -5.0167
62.2500 -6.0167
62.2667 -7.0167
62.2833 -8.0167
62.3000 -9.0167
62.3167 -10.0167
62.3333 -11.0167
62.3500 -12.0167
62.3667 -13.0167
62.3833 -14.0167
62.4000 -15.0167
62.4167 -16.0167
62.4333 -17.0167
62.4500 -18.0167
62.4667 -19.0167
62.4833 -20.0167
62.5000 -21.0167
62.5167 -22.0167
62.5333 -23.0167
62.5500 -24.0167
62.5667 -25.0167
62.5833 -26.0167
62.6000 -27.0167
62.6167 -28.0167
62.6333 -29.0167
62.6500 -30.0167
62.6667 -31.0167
62.6833 -32.0167
62.7000 -33.0167
62.7167 -34.0167
62.7333 -35.0167
62.7500 -36.0167
62.7667 -37.0167
62.7833 -38.0167
62.8000 -39.0167
62.8167 -40.0167
62.8333 -41.0167
62.8500 -42.0167
62.8667 -43.0167
62.8833 -44.0167
62.9000 -45.0167
62.9167 -46.0167
62.9333 -47.0167
62.9500 -48.0167
62.9667 -49.0167
62.9833 -50.0167
63.0000 -51.0167
63.0167 -52.0167
63.0333 -53.0167
63.0500 -54.0167
63.0667 -55.0167
63.0833 -56.0167
63.1000 -57.0167
63.1167 -58.0167
63.1333 -59.0167
63.1500 -60.0167
63.1667 -61.0167
63.1833 -62.0167
63.2000 -63.0167
63.2167 -64.0167
63.2333 -65.0167
63.2500 -66.0167
63.2667 -67.0167
63.2833 -68.0167
63.3000 -69.0167
63.3167 -70.0167
63.3333 -71.0167
63.3500 -72.0167
63.3667 -73.0167
63.3833 -74.0167
63.4000 -75.0167
63.4167 -76.0167
63.4333 -77.0167
63.4500 -78.0167
63.4667 -79.0167
63.4833 -80.0167
63.5000 -81.0167
63.5167 -82.0167
63.5333 -83.0167
63.5500 -84.0167
63.5667 -85.0167
63.5833 -86.0167
63.6000 -87.0167
63.6167 -88.0167
63.6333 -89.0167
63.6500 -90.0167
63.6667 -91.0167
63.6833 -92.0167
63.7000 -93.0167
63.7167 -94.0167
63.7333 -95.0167
63.7500 -96.0167
63.7667 -97.0167
63.7833 -98.0167
63.8000 -99.0167
63.8167 -100.0167
63.8333 -101.0167
63.8500 -102.0167
63.8667 -103.0167
63.8833 -104.0167
63.9000 -105.0167
63.9167 -106.0167
63.9333 -107.0167
63.9500 -108.0167
63.9667 -109.0167
63.9833 -110.0167
64.0000 -109.0167
64.0167 -108.0167
64.0333 -107.0167
64.0500 -106.0167
64.0667 -105.0167
64.0833 -104.0167
64.1000 -103.0167
64.1167 -102.0167
64.1333 -101.0167
64.1500 -100.0167
64.1667 -99.0167
64.1833 -98.0167
64.2000 -97.0167
64.2167 -96.0167
64.2333 -95.0167
64.2500 -94.0167
64.2667 -93.0167
64.2833 -92.0167
64.3000 -91.0167
64.3167 -90.0167
64.3333 -89.0167
64.3500 -88.0167
64.3667 -87.0167
64.3833 -86.0167
64.4000 -85.0167
64.4167 -84.0167
64.4333 -83.0167
64.4500 -82.0167
64.4667 -81.0167
64.4833 -80.0167
64.5000 -79.0167
64.5167 -78.0167
64.5333 -77.0167
64.5500 -76.0167
64.5667 -75.0167
64.5833 -74.0167
64.6000 -73.0167
64.6167 -72.0167
64.6333 -71.0167
64.6500 -70.0167
64.6667 -69.0167
64.6833 -68.0167
64.7000 -67.0167
64.7167 -66.0167
64.7333 -65.0167
64.7500 -64.0167
64.7667 -63.0167
64.7833 -62.0167
64.8000 -61.0167
64.8167 -60.0167
64.8333 -59.0167
64.8500 -58.0167
64.8667 -57.0167
64.8833 -56.0167
64.9000 -55.0167
64.9167 -54.0167
64.9333 -53.0167
64.9500 -52.0167
64.9667 -51.0167
64.9833 -50.0167
65.0000 -49.0167
65.0167 -48.0167
65.0333 -47.0167
65.0500 -46.0167
65.0667 -45.0167
65.0833 -44.0167
65.1000 -43.0167
65.1167 -42.0167
65.1333 -41.0167
65.1500 -40.0167
65.1667 -39.0167
65.1833 -38.0167
65.2000 -37.0167
65.2167 -36.0167
65.2333 -35.0167
65.2500 -34.0167
65.2667 -33.0167
65.2833 -32.0167
65.3000 -31.0167
65.3167 -30.0167
65.3333 -29.0167
65.3500 -28.0167
65.3667 -27.0167
65.3833 -26.0167
65.4000 -25.0167
65.4167 -24.0167
65.4333 -23.0167
65.4500 -22.0167
65.4667 -21.0167
65.4833 -20.0167
65.5000 -19.0167
65.5167 -18.0167
65.5333 -17.0167
65.5500 -16.0167
65.5667 -15.0167
65.5833 -14.0167
65.6000 -13.0167
65.6167 -12.0167
65.6333 -11.0167
65.6500 -10.0167
65.6667 -9.0167
65.6833 -8.0167
65.7000 -7.0167
65.7167 -6.0167
65.7333 -5.0167
65.7500 -4.0167
65.7667 -3.0167
65.7833 -2.0167
65.8000 -1.0167
65.8167 -0.0167
65.8333 0.9833
65.8500 1.9833
65.8667 2.9833
65.8833 3.9833
65.9000 4.9833
65.9167 5.9833
65.9333 6.9833
65.9500 7.9833
65.9667 8.9833
65.9833 9.9833
66.0000 8.9833
66.0167 7.9833
66.0333 6.9833
66.0500 5.9833
66.0667 4.9833
66.0833 3.9833
66.1000 2.9833
66.1167 1.9833
66.1333 0.9833
66.1500 -0.0167
66.1667 -1.0167
66.1833 -2.0167
66.2000 -3.0167
66.2167 -4.0167
66.2333 -5.0167
66.2500 -6.0167
66.2667 -7.0167
66.2833 -8.0167
66.3000 -9.0167
66.3167 -10.0167
66.3333 -11.0167
66.3500 -12.0167
66.3667 -13.0167
66.3833 -14.0167
66.4000 -15.0167
66.4167 -16.0167
66.4333 -17.0167
66.4500 -18.0167
66.4667 -19.0167
66.4833 -20.0167
66.5000 -21.0167
66.5167 -22.0167
66.5333 -23.0167
66.5500 -24.0167
66.5667 -25.0167
66.5833 -26.0167
66.6000 -27.0167
66.6167 -28.0167
66.6333 -29.0167
66.6500 -30.0167
66.6667 -31.0167
66.6833 -32.0167
66.7000 -33.0167
66.7167 -34.0167
66.7333 -35.0167
66.7500 -36.0167
66.7667 -37.0167
66.7833 -38.0167
66.8000 -39.0167
66.8167 -40.0167
66.8333 -41.0167
66.8500 -42.0167
66.8667 -43.0167
66.8833 -44.0167
66.9000 -45.0167
66.9167 -46.0167
66.9333 -47.0167
66.9500 -48.0167
66.9667 -49.0167
66.9833 -50.0167
67.0000 -51.0167
67.0167 -52.0167
67.0333 -53.0167
67.0500 -54.0167
67.0667 -55.0167
67.0833 -56.0167
67.1000 -57.0167
67.1167 -58.0167
67.1333 -59.0167
67.1500 -60.0167
67.1667 -61.0167
67.1833 -62.0167
67.2000 -63.0167
67.2167 -64.0167
67.2333 -65.0167
67.2500 -66.0167
67.2667 -67.0167
67.2833 -68.0167
67.3000 -69.0167
67.3167 -70.0167
67.3333 -71.0167
67.3500 -72.0167
67.3667 -73.0167
67.3833 -74.0167
67.4000 -75.0167
67.4167 -76.0167
67.4333 -77.0167
67.4500 -78.0167
67.4667 -79.0167
67.4833 -80.0167
67.5000 -81.0167
67.5167 -82.0167
67.5333 -83.0167
67.5500 -84.0167
67.5667 -85.0167
67.5833 -86.0167
67.6000 -87.0167
67.6167 -88.0167
67.6333 -89.0167
67.6500 -90.0167
67.6667 -91.0167
67.6833 -92.0167
67.7000 -93.0167
67.7167 -94.0167
67.7333 -95.0167
67.7500 -96.0167
67.7667 -97.0167
67.7833 -98.0167
67.8000 -99.0167
67.8167 -100.0167
67.8333 -101.0167
67.8500 -102.0167
67.8667 -103.0167
67.8833 -104.0167
67.9000 -105.0167
67.9167 -106.0167
67.9333 -107.0167
67.9500 -108.0167
67.9667 -109.0167
67.9833 -110.0167
68.0000 -109.0167
68.0167 -108.0167
68.0333 -107.0167
68.0500 -106.0167
68.0667 -105.0167
68.0833 -104.0167
68.1000 -103.0167
68.1167 -102.0167
68.1333 -101.0167
68.1500 -100.0167
68.1667 -99.0167
68.1833 -98.0167
68.2000 -97.0167
68.2167 -96.0167
68.2333 -95.0167
68.2500 -94.0167
68.2667 -93.0167
68.2833 -92.0167
68.3000 -91.0167
68.3167 -90.0167
68.3333 -89.0167
68.3500 -88.0167
68.3667 -87.0167
68.3833 -86.0167
68.4000 -85.0167
68.4167 -84.0167
68.4333 -83.0167
68.4500 -82.0167
68.4667 -81.0167
68.4833 -80.0167
68.5000 -79.0167
68.5167 -78.0167
68.5333 -77.0167
68.5500 -76.0167
68.5667 -75.0167
68.5833 -74.0167
68.6000 -73.0167
68.6167 -72.0167
68.6333 -71.0167
68.6500 -70.0167
68.6667 -69.0167
68.6833 -68.0167
68.7000 -67.0167
68.7167 -66.0167
68.7333 -65.0167
68.7500 -64.0167
68.7667 -63.0167
68.7833 -62.0167
68.8000 -61.0167
68.8167 -60.0167
68.8333 -59.0167
68.8500 -58.0167
68.8667 -57.0167
68.8833 -56.0167
68.9000 -55.0167
68.9167 -54.0167
68.9333 -53.0167
68.9500 -52.0167
68.9667 -51.0167
68.9833 -50.0167
69.0000 -49.0167
69.0167 -48.0167
69.0333 -47.0167
69.0500 -46.0167
69.0667 -45.0167
69.0833 -44.0167
69.1000 -43.0167
69.1167 -42.0167
69.1333 -41.0167
69.1500 -40.0167
69.1667 -39.0167
69.1833 -38.0167
69.2000 -37.0167
69.2167 -36.0167
69.2333 -35.0167
69.2500 -34.0167
69.2667 -33.0167
69.2833 -32.0167
69.3000 -31.0167
69.3167 -30.0167
69.3333 -29.0167
69.3500 -28.0167
69.3667 -27.0167
69.3833 -26.0167
69.4000 -25.0167
69.4167 -24.0167
69.4333 -23.0167
69.4500 -22.0167
69.4667 -21.0167
69.4833 -20.0167
69.5000 -19.0167
69.5167 -18.0167
69.5333 -17.0167
69.5500 -16.0167
69.5667 -15.0167
69.5833 -14.0167
69.6000 -13.0167
69.6167 -12.0167
69.6333 -11.0167
69.6500 -10.0167
69.6667 -9.0167
69.6833 -8.0167
69.7000 -7.0167
69.7167 -6.0167
69.7333 -5.0167
69.7500 -4.0167
69.7667 -3.0167
69.7833 -2.0167
69.8000 -1.0167
69.8167 -0.0167
69.8333 0.9833
69.8500 1.9833
69.8667 2.9833
69.8833 3.9833
69.9000 4.9833
69.9167 5.9833
69.9333 6.9833
69.9500 7.9833
69.9667 8.9833
69.9833 9.9833
70.0000 8.9833
70.0167 7.9833
70.0333 6.9833
70.0500 5.9833
70.0667 4.9833
70.0833 3.9833
70.1000 2.9833
70.1167 1.9833
70.1333 0.9833
70.1500 -0.0167
70.1667 -1.0167
70.1833 -2.0167
70.2000 -3.0167
70.2167 -4.0167
70.2333 -5.0167
70.2500 -6.0167
70.2667 -7.0167
70.2833 -8.0167
70.3000 -9.0167
70.3167 -10.0167
70.3333 -11.0167
70.3500 -12.0167
70.3667 -13.0167
70.3833 -14.0167
70.4000 -15.0167
70.4167 -16.0167
70.4333 -17.0167
70.4500 -18.0167
70.4667 -19.0167
70.4833 -20.0167
70.5000 -21.0167
70.5167 -22.0167
70.5333 -23.0167
70.5500 -24.0167
70.5667 -25.0167
70.5833 -26.0167
70.6000 -27.0167
70.6167 -28.0167
70.6333 -29.0167
70.6500 -30.0167
70.6667 -31.0167
70.6833 -32.0167
70.7000 -33.0167
70.7167 -34.0167
70.7333 -35.0167
70.7500 -36.0167
70.7667 -37.0167
70.7833 -38.0167
70.8000 -39.0167
70.8167 -40.0167
70.8333 -41.0167
70.8500 -42.0167
70.8667 -43.0167
70.8833 -44.0167
70.9000 -45.0167
70.9167 -46.0167
70.9333 -47.0167
70.9500 -48.0167
70.9667 -49.0167
70.9833 -50.0167
71.0000 -51.0167
71.0167 -52.0167
71.0333 -53.0167
71.0500 -54.0167
71.0667 -55.0167
71.0833 -56.0167
71.1000 -57.0167
71.1167 -58.0167
71.1333 -59.0167
71.1500 -60.0167
71.1667 -61.0167
71.1833 -62.0167
71.2000 -63.0167
71.2167 -64.0167
71.2333 -65.0167
71.2500 -66.0167
71.2667 -67.0167
71.2833 -68.0167
71.3000 -69.0167
71.3167 -70.0167
71.3333 -71.0167
71.3500 -72.0167
71.3667 -73.0167
71.3833 -74.0167
71.4000 -75.0167
71.4167 -76.0167
71.4333 -77.0167
71.4500 -78.0167
71.4667 -79.0167
71.4833 -80.0167
71.5000 -81.0167
71.5167 -82.0167
71.5333 -83.0167
71.5500 -84.0167
71.5667 -85.0167
71.5833 -86.0167
71.6000 -87.0167
71.6167 -88.0167
71.6333 -89.0167
71.6500 -90.0167
71.6667 -91.0167
71.6833 -92.0167
71.7000 -93.0167
71.7167 -94.0167
71.7333 -95.0167
71.7500 -96.0167
71.7667 -97.0167
71.7833 -98.0167
71.8000 -99.0167
71.8167 -100.0167
71.8333 -101.0167
71.8500 -102.0167
71.8667 -103.0167
71.8833 -104.0167
71.9000 -105.0167
71.9167 -106.0167
71.9333 -107.0167
71.9500 -108.0167
71.9667 -109.0167
71.9833 -110.0167
72.0000 -109.0167
72.0167 -108.0167
72.0333 -107.0167
72.0500 -106.0167
72.0667 -105.0167
72.0833 -104.0167
72.1000 -103.0167
72.1167 -102.0167
72.1333 -101.0167
72.1500 -100.0167
72.1667 -99.0167
72.1833 -98.0167
72.2000 -97.0167
72.2167 -96.0167
72.2333 -95.0167
72.2500 -94.0167
72.2667 -93.0167
72.2833 -92.0167
72.3000 -91.0167
72.3167 -90.0167
72.3333 -89.0167
72.3500 -88.0167
72.3667 -87.0167
72.3833 -86.0167
72.4000 -85.0167
72.4167 -84.0167
72.4333 -83.0167
72.4500 -82.0167
72.4667 -81.0167
72.4833 -80.0167
72.5000 -79.0167
72.5167 -78.0167
72.5333 -77.0167
72.5500 -76.0167
72.5667 -75.0167
72.5833 -74.0167
72.6000 -73.0167
72.6167 -72.0167
72.6333 -71.0167
72.6500 -70.0167
72.6667 -69.0167
72.6833 -68.0167
72.7000 -67.0167
72.7167 -66.0167
72.7333 -65.0167
72.7500 -64.0167
72.7667 -63.0167
72.7833 -62.0167
72.8000 -61.0167
72.8167 -60.0167
72.8333 -59.0167
72.8500 -58.0167
72.8667 -57.0167
72.8833 -56.0167
72.9000 -55.0167
72.9167 -54.0167
72.9333 -53.0167
72.9500 -52.0167
72.9667 -51.0167
72.9833 -50.0167
73.0000 -49.0167
73.0167 -48.0167
73.0333 -47.0167
73.0500 -46.0167
73.0667 -45.0167
73.0833 -44.0167
73.1000 -43.0167
73.1167 -42.0167
73.1333 -41.0167
73.1500 -40.0167
73.1667 -39.0167
73.1833 -38.0167
73.2000 -37.0167
73.2167 -36.0167
73.2333 -35.0167
73.2500 -34.0167
73.2667 -33.0167
73.2833 -32.0167
73.3000 -31.0167
73.3167 -30.0167
73.3333 -29.0167
73.3500 -28.0167
73.3667 -27.0167
73.3833 -26.0167
73.4000 -25.0167
73.4167 -24.0167
73.4333 -23.0167
73.4500 -22.0167
73.4667 -21.0167
73.4833 -20.0167
73.5000 -19.0167
73.5167 -18.0167
73.5333 -17.0167
73.5500 -16.0167
73.5667 -15.0167
73.5833 -14.0167
73.6000 -13.0167
73.6167 -12.0167
73.6333 -11.0167
73.6500 -10.0167
73.6667 -9.0167
73.6833 -8.0167
73.7000 -7.0167
73.7167 -6.0167
73.7333 -5.0167
73.7500 -4.0167
73.7667 -3.0167
73.7833 -2.0167
73.8000 -1.0167
73.8167 -0.0167
73.8333 0.9833
73.8500 1.9833
73.8667 2.9833
73.8833 3.9833
73.9000 4.9833
73.9167 5.9833
73.9333 6.9833
73.9500 7.9833
73.9667 8.9833
73.9833 9.9833
74.0000 8.9833
74.0167 7.9833
74.0333 6.9833
74.0500 5.9833
74.0667 4.9833
74.0833 3.9833
74.1000 2.9833
74.1167 1.9833
74.1333 0.9833
74.1500 -0.0167
74.1667 -1.0167
74.1833 -2.0167
74.2000 -3.0167
74.2167 -4.0167
74.2333 -5.0167
74.2500 -6.0167
74.2667 -7.0167
74.2833 -8.0167
74.3000 -9.0167
74.3167 -10.0167
74.3333 -11.0167
74.3500 -12.0167
74.3667 -13.0167
74.3833 -14.0167
74.4000 -15.0167
74.4167 -16.0167
74.4333 -17.0167
74.4500 -18.0167
74.4667 -19.0167
74.4833 -20.0167
74.5000 -21.0167
74.5167 -22.0167
74.5333 -23.0167
74.5500 -24.0167
74.5667 -25.0167
74.5833 -26.0167
74.6000 -27.0167
74.6167 -28.0167
74.6333 -29.0167
74.6500 -30.0167
74.6667 -31.0167
74.6833 -32.0167
74.7000 -33.0167
74.7167 -34.0167
74.7333 -35.0167
74.7500 -36.0167
74.7667 -37.0167
74.7833 -38.0167
74.8000 -39.0167
74.8167 -40.0167
74.8333 -41.0167
74.8500 -42.0167
74.8667 -43.0167
74.8833 -44.0167
74.9000 -45.0167
74.9167 -46.0167
74.9333 -47.0167
74.9500 -48.0167
74.9667 -49.0167
74.9833 -50.0167
75.0000 -51.0167
75.0167 -52.0167
75.0333 -53.0167
75.0500 -54.0167
75.0667 -55.0167
75.0833 -56.0167
75.1000 -57.0167
75.1167 -58.0167
75.1333 -59.0167
75.1500 -60.0167
75.1667 -61.0167
75.1833 -62.0167
75.2000 -63.0167
75.2167 -64.0167
75.2333 -65.0167
75.2500 -66.0167
75.2667 -67.0167
75.2833 -68.0167
75.3000 -69.0167
75.3167 -70.0167
75.3333 -71.0167
75.3500 -72.0167
75.3667 -73.0167
75.3833 -74.0167
75.4000 -75.0167
75.4167 -76.0167
75.4333 -77.0167
75.4500 -78.0167
75.4667 -79.0167
75.4833 -80.0167
75.5000 -81.0167
75.5167 -82.0167
75.5333 -83.0167
75.5500 -84.0167
75.5667 -85.0167
75.5833 -86.0167
75.6000 -87.0167
75.6167 -88.0167
75.6333 -89.0167
75.6500 -90.0167
75.6667 -91.0167
75.6833 -92.0167
75.7000 -93.0167
75.7167 -94.0167
75.7333 -95.0167
75.7500 -96.0167
75.7667 -97.0167
75.7833 -98.0167
75.8000 -99.0167
75.8167 -100.0167
75.8333 -101.0167
75.8500 -102.0167
75.8667 -103.0167
75.8833 -104.0167
75.9000 -105.0167
75.9167 -106.0167
75.9333 -107.0167
75.9500 -108.0167
75.9667 -109.0167
75.9833 -110.0167
76.0000 -109.0167
76.0167 -108.0167
76.0333 -107.0167
76.0500 -106.0167
76.0667 -105.0167
76.0833 -104.0167
76.1000 -103.0167
76.1167 -102.0167
76.1333 -101.0167
76.1500 -100.0167
76.1667 -99.0167
76.1833 -98.0167
76.2000 -97.0167
76.2167 -96.0167
76.2333 -95.0167
76.2500 -94.0167
76.2667 -93.0167
76.2833 -92.0167
76.3000 -91.0167
76.3167 -90.0167
76.3333 -89.0167
76.3500 -88.0167
76.3667 -87.0167
76.3833 -86.0167
76.4000 -85.0167
76.4167 -84.0167
76.4333 -83.0167
76.4500 -82.0167
76.4667 -81.0167
76.4833 -80.0167
76.5000 -79.0167
76.5167 -78.0167
76.5333 -77.0167
76.5500 -76.0167
76.5667 -75.0167
76.5833 -74.0167
76.6000 -73.0167
76.6167 -72.0167
76.6333 -71.0167
76.6500 -70.0167
76.6667 -69.0167
76.6833 -68.0167
76.7000 -67.0167
76.7167 -66.0167
76.7333 -65.0167
76.7500 -64.0167
76.7667 -63.0167
76.7833 -62.0167
76.8000 -61.0167
76.8167 -60.0167
76.8333 -59.0167
76.8500 -58.0167
76.8667 -57.0167
76.8833 -56.0167
76.9000 -55.0167
76.9167 -54.0167
76.9333 -53.0167
76.9500 -52.0167
76.9667 -51.0167
76.9833 -50.0167
77.0000 -49.0167
77.0167 -48.0167
77.0333 -47.0167
77.0500 -46.0167
77.0667 -45.0167
77.0833 -44.0167
77.1000 -43.0167
77.1167 -42.0167
77.1333 -41.0167
77.1500 -40.0167
77.1667 -39.0167
77.1833 -38.0167
77.2000 -37.0167
77.2167 -36.0167
77.2333 -35.0167
77.2500 -34.0167
77.2667 -33.0167
77.2833 -32.0167
77.3000 -31.0167
77.3167 -30.0167
77.3333 -29.0167
77.3500 -28.0167
77.3667 -27.0167
77.3833 -26.0167
77.4000 -25.0167
77.4167 -24.0167
77.4333 -23.0167
77.4500 -22.0167
77.4667 -21.0167
77.4833 -20.0167
77.5000 -19.0167
77.5167 -18.0167
77.5333 -17.0167
77.5500 -16.0167
77.5667 -15.0167
77.5833 -14.0167
77.6000 -13.0167
77.6167 -12.0167
77.6333 -11.0167
77.6500 -10.0167
77.6667 -9.0167
77.6833 -8.0167
77.7000 -7.0167
77.7167 -6.0167
77.7333 -5.0167
77.7500 -4.0167
77.7667 -3.0167
77.7833 -2.0167
77.8000 -1.0167
77.8167 -0.0167
77.8333 0.9833
77.8500 1.9833
77.8667 2.9833
77.8833 3.9833
77.9000 4.9833
77.9167 5.9833
77.9333 6.9833
77.9500 7.9833
77.9667 8.9833
77.9833 9.9833
78.0000 8.9833
78.0167 7.9833
78.0333 6.9833
78.0500 5.9833
78.0667 4.9833
78.0833 3.9833
78.1000 2.9833
78.1167 1.9833
78.1333 0.9833
78.1500 -0.0167
78.1667 -1.0167
78.1833 -2.0167
78.2000 -3.0167
78.2167 -4.0167
78.2333 -5.0167
78.2500 -6.0167
78.2667 -7.0167
78.2833 -8.0167
78.3000 -9.0167
78.3167 -10.0167
78.3333 -11.0167
78.3500 -12.0167
78.3667 -13.0167
78.3833 -14.0167
78.4000 -15.0167
78.4167 -16.0167
78.4333 -17.0167
78.4500 -18.0167
78.4667 -19.0167
78.4833 -20.0167
78.5000 -21.0167
78.5167 -22.0167
78.5333 -23.0167
78.5500 -24.0167
78.5667 -25.0167
78.5833 -26.0167
78.6000 -27.0167
78.6167 -28.0167
78.6333 -29.0167
78.6500 -30.0167
78.6667 -31.0167
78.6833 -32.0167
78.7000 -33.0167
78.7167 -34.0167
78.7333 -35.0167
78.7500 -36.0167
78.7667 -37.0167
78.7833 -38.0167
78.8000 -39.0167
78.8167 -40.0167
78.8333 -41.0167
78.8500 -42.0167
78.8667 -43.0167
78.8833 -44.0167
78.9000 -45.0167
78.9167 -46.0167
78.9333 -47.0167
78.9500 -48.0167
78.9667 -49.0167
78.9833 -50.0167
79.0000 -51.0167
79.0167 -52.0167
79.0333 -53.0167
79.0500 -54.0167
79.0667 -55.0167
79.0833 -56.0167
79.1000 -57.0167
79.1167 -58.0167
79.1333 -59.0167
79.1500 -60.0167
79.1667 -61.0167
79.1833 -62.0167
79.2000 -63.0167
79.2167 -64.0167
79.2333 -65.0167
79.2500 -66.0167
79.2667 -67.0167
79.2833 -68.0167
79.3000 -69.0167
79.3167 -70.0167
79.3333 -71.0167
79.3500 -72.0167
79.3667 -73.0167
79.3833 -74.0167
79.4000 -75.0167
79.4167 -76.0167
79.4333 -77.0167
79.4500 -78.0167
79.4667 -79.0167
79.4833 -80.0167
79.5000 -81.0167
79.5167 -82.0167
79.5333 -83.0167
79.5500 -84.0167
79.5667 -85.0167
79.5833 -86.0167
79.6000 -87.0167
79.6167 -88.0167
79.6333 -89.0167
79.6500 -90.0167
79.6667 -91.0167
79.6833 -92.0167
79.7000 -93.0167
79.7167 -94.0167
79.7333 -95.0167
79.7500 -96.0167
79.7667 -97.0167
79.7833 -98.0167
79.8000 -99.0167
79.8167 -100.0167
79.8333 -101.0167
79.8500 -102.0167
79.8667 -103.0167
79.8833 -104.0167
79.9000 -105.0167
79.9167 -106.0167
79.9333 -107.0167
79.9500 -108.0167
79.9667 -109.0167
79.9833 -110.0167
80.0000 -109.0167
80.0167 -108.0167
80.0333 -107.0167
80.0500 -106.0167
80.0667 -105.0167
80.0833 -104.0167
80.1000 -103.0167
80.1167 -102.0167
80.1333 -101.0167
80.1500 -100.0167
80.1667 -99.0167
80.1833 -98.0167
80.2000 -97.0167
80.2167 -96.0167
80.2333 -95.0167
80.2500 -94.0167
80.2667 -93.0167
80.2833 -92.0167
80.3000 -91.0167
80.3167 -90.0167
80.3333 -89.0167
80.3500 -88.0167
80.3667 -87.0167
80.3833 -86.0167
80.4000 -85.0167
80.4167 -84.0167
80.4333 -83.0167
80.4500 -82.0167
80.4667 -81.0167
80.4833 -80.0167
80.5000 -79.0167
80.5167 -78.0167
80.5333 -77.0167
80.5500 -76.0167
80.5667 -75.0167
80.5833 -74.0167
80.6000 -73.0167
80.6167 -72.0167
80.6333 -71.0167
80.6500 -70.0167
80.6667 -69.0167
80.6833 -68.0167
80.7000 -67.0167
80.7167 -66.0167
80.7333 -65.0167
80.7500 -64.0167
80.7667 -63.0167
80.7833 -62.0167
80.8000 -61.0167
80.8167 -60.0167
80.8333 -59.0167
80.8500 -58.0167
80.8667 -57.0167
80.8833 -56.0167
80.9000 -55.0167
80.9167 -54.0167
80.9333 -53.0167
80.9500 -52.0167
80.9667 -51.0167
80.9833 -50.0167
81.0000 -49.0167
81.0167 -48.0167
81.0333 -47.0167
81.0500 -46.0167
81.0667 -45.0167
81.0833 -44.0167
81.1000 -43.0167
81.1167 -42.0167
81.1333 -41.0167
81.1500 -40.0167
81.1667 -39.0167
81.1833 -38.0167
81.2000 -37.0167
81.2167 -36.0167
81.2333 -35.0167
81.2500 -34.0167
81.2667 -33.0167
81.2833 -32.0167
81.3000 -31.0167
81.3167 -30.0167
81.3333 -29.0167
81.3500 -28.0167
81.3667 -27.0167
81.3833 -26.0167
81.4000 -25.0167
81.4167 -24.0167
81.4333 -23.0167
81.4500 -22.0167
81.4667 -21.0167
81.4833 -20.0167
81.5000 -19.0167
81.5167 -18.0167
81.5333 -17.0167
81.5500 -16.0167
81.5667 -15.0167
81.5833 -14.0167
81.6000 -13.0167
81.6167 -12.0167
81.6333 -11.0167
81.6500 -10.0167
81.6667 -9.0167
81.6833 -8.0167
81.7000 -7.0167
81.7167 -6.0167
81.7333 -5.0167
81.7500 -4.0167
81.7667 -3.0167
81.7833 -2.0167
81.8000 -1.0167
81.8167 -0.0167
81.8333 0.9833
81.8500 1.9833
81.8667 2.9833
81.8833 3.9833
81.9000 4.9833
81.9167 5.9833
81.9333 6.9833
81.9500 7.9833
81.9667 8.9833
81.9833 9.9833
82.0000 8.9833
82.0167 7.9833
82.0333 6.9833
82.0500 5.9833
82.0667 4.9833
82.0833 3.9833
82.1000 2.9833
82.1167 1.9833
82.1333 0.9833
82.1500 -0.0167
82.1667 -1.0167
82.1833 -2.0167
82.2000 -3.0167
82.2167 -4.0167
82.2333 -5.0167
82.2500 -6.0167
82.2667 -7.0167
82.2833 -8.0167
82.3000 -9.0167
82.3167 -10.0167
82.3333 -11.0167
82.3500 -12.0167
82.3667 -13.0167
82.3833 -14.0167
82.4000 -15.0167
82.4167 -16.0167
82.4333 -17.0167
82.4500 -18.0167
82.4667 -19.0167
82.4833 -20.0167
82.5000 -21.0167
82.5167 -22.0167
82.5333 -23.0167
82.5500 -24.0167
82.5667 -25.0167
82.5833 -26.0167
82.6000 -27.0167
82.6167 -28.0167
82.6333 -29.0167
82.6500 -30.0167
82.6667 -31.0167
82.6833 -32.0167
82.7000 -33.0167
82.7167 -34.0167
82.7333 -35.0167
82.7500 -36.0167
82.7667 -37.0167
82.7833 -38.0167
82.8000 -39.0167
82.8167 -40.0167
82.8333 -41.0167
82.8500 -42.0167
82.8667 -43.0167
82.8833 -44.0167
82.9000 -45.0167
82.9167 -46.0167
82.9333 -47.0167
82.9500 -48.0167
82.9667 -49.0167
82.9833 -50.0167
83.0000 -51.0167
83.0167 -52.0167
83.0333 -53.0167
83.0500 -54.0167
83.0667 -55.0167
83.0833 -56.0167
83.1000 -57.0167
83.1167 -58.0167
83.1333 -59.0167
83.1500 -60.0167
83.1667 -61.0167
83.1833 -62.0167
83.2000 -63.0167
83.2167 -64.0167
83.2333 -65.0167
83.2500 -66.0167
83.2667 -67.0167
83.2833 -68.0167
83.3000 -69.0167
83.3167 -70.0167
83.3333 -71.0167
83.3500 -72.0167
83.3667 -73.0167
83.3833 -74.0167
83.4000 -75.0167
83.4167 -76.0167
83.4333 -77.0167
83.4500 -78.0167
83.4667 -79.0167
83.4833 -80.0167
83.5000 -81.0167
83.5167 -82.0167
83.5333 -83.0167
83.5500 -84.0167
83.5667 -85.0167
83.5833 -86.0167
83.6000 -87.0167
83.6167 -88.0167
83.6333 -89.0167
83.6500 -90.0167
83.6667 -91.0167
83.6833 -92.0167
83.7000 -93.0167
83.7167 -94.0167
83.7333 -95.0167
83.7500 -96.0167
83.7667 -97.0167
83.7833 -98.0167
83.8000 -99.0167
83.8167 -100.0167
83.8333 -101.0167
83.8500 -102.0167
83.8667 -103.0167
83.8833 -104.0167
83.9000 -105.0167
83.9167 -106.0167
83.9333 -107.0167
83.9500 -108.0167
83.9667 -109.0167
83.9833 -110.0167
84.0000 -109.0167
84.0167 -108.0167
84.0333 -107.0167
84.0500 -106.0167
84.0667 -105.0167
84.0833 -104.0167
84.1000 -103.0167
84.1167 -102.0167
84.1333 -101.0167
84.1500 -100.0167
84.1667 -99.0167
84.1833 -98.0167
84.2000 -97.0167
84.2167 -96.0167
84.2333 -95.0167
84.2500 -94.0167
84.2667 -93.0167
84.2833 -92.0167
84.3000 -91.0167
84.3167 -90.0167
84.3333 -89.0167
84.3500 -88.0167
84.3667 -87.0167
84.3833 -86.0167
84.4000 -85.0167
84.4167 -84.0167
84.4333 -83.0167
84.4500 -82.0167
84.4667 -81.0167
84.4833 -80.0167
84.5000 -79.0167
84.5167 -78.0167
84.5333 -77.0167
84.5500 -76.0167
84.5667 -75.0167
84.5833 -74.0167
84.6000 -73.0167
84.6167 -72.0167
84.6333 -71.0167
84.6500 -70.0167
84.6667 -69.0167
84.6833 -68.0167
84.7000 -67.0167
84.7167 -66.0167
84.7333 -65.0167
84.7500 -64.0167
84.7667 -63.0167
84.7833 -62.0167
84.8000 -61.0167
84.8167 -60.0167
84.8333 -59.0167
84.8500 -58.0167
84.8667 -57.0167
84.8833 -56.0167
84.9000 -55.0167
84.9167 -54.0167
84.9333 -53.0167
84.9500 -52.0167
84.9667 -51.0167
84.9833 -50.0167
85.0000 -49.0167
85.0167 -48.0167
85.0333 -47.0167
85.0500 -46.0167
85.0667 -45.0167
85.0833 -44.0167
85.1000 -43.0167
85.1167 -42.0167
85.1333 -41.0167
85.1500 -40.0167
85.1667 -39.0167
85.1833 -38.0167
85.2000 -37.0167
85.2167 -36.0167
85.2333 -35.0167
85.2500 -34.0167
85.2667 -33.0167
85.2833 -32.0167
85.3000 -31.0167
85.3167 -30.0167
85.3333 -29.0167
85.3500 -28.0167
85.3667 -27.0167
85.3833 -26.0167
85.4000 -25.0167
85.4167 -24.0167
85.4333 -23.0167
85.4500 -22.0167
85.4667 -21.0167
85.4833 -20.0167
85.5000 -19.0167
85.5167 -18.0167
85.5333 -17.0167
85.5500 -16.0167
85.5667 -15.0167
85.5833 -14.0167
85.6000 -13.0167
85.6167 -12.0167
85.6333 -11.0167
85.6500 -10.0167
85.6667 -9.0167
85.6833 -8.0167
85.7000 -7.0167
85.7167 -6.0167
85.7333 -5.0167
85.7500 -4.0167
85.7667 -3.0167
85.7833 -2.0167
85.8000 -1.0167
85.8167 -0.0167
85.8333 0.9833
85.8500 1.9833
85.8667 2.9833
85.8833 3.9833
85.9000 4.9833
85.9167 5.9833
85.9333 6.9833
85.9500 7.9833
85.9667 8.9833
85.9833 9.9833
86.0000 8.9833
86.0167 7.9833
86.0333 6.9833
86.0500 5.9833
86.0667 4.9833
86.0833 3.9833
86.1000 2.9833
86.1167 1.9833
86.1333 0.9833
86.1500 -0.0167
86.1667 -1.0167
86.1833 -2.0167
86.2000 -3.0167
86.2167 -4.0167
86.2333 -5.0167
86.2500 -6.0167
86.2667 -7.0167
86.2833 -8.0167
86.3000 -9.0167
86.3167 -10.0167
86.3333 -11.0167
86.3500 -12.0167
86.3667 -13.0167
86.3833 -14.0167
86.4000 -15.0167
86.4167 -16.0167
86.4333 -17.0167
86.4500 -18.0167
86.4667 -19.0167
86.4833 -20.0167
86.5000 -21.0167
86.5167 -22.0167
86.5333 -23.0167
86.5500 -24.0167
86.5667 -25.0167
86.5833 -26.0167
86.6000 -27.0167
86.6167 -28.0167
86.6333 -29.0167
86.6500 -30.0167
86.6667 -31.0167
86.6833 -32.0167
86.7000 -33.0167
86.7167 -34.0167
86.7333 -35.0167
86.7500 -36.0167
86.7667 -37.0167
86.7833 -38.0167
86.8000 -39.0167
86.8167 -40.0167
86.8333 -41.0167
86.8500 -42.0167
86.8667 -43.0167
86.8833 -44.0167
86.9000 -45.0167
86.9167 -46.0167
86.9333 -47.0167
86.9500 -48.0167
86.9667 -49.0167
86.9833 -50.0167
87.0000 -51.0167
87.0167 -52.0167
87.0333 -53.0167
87.0500 -54.0167
87.0667 -55.0167
87.0833 -56.0167
87.1000 -57.0167
87.1167 -58.0167
87.1333 -59.0167
87.1500 -60.0167
87.1667 -61.0167
87.1833 -62.0167
87.2000 -63.0167
87.2167 -64.0167
87.2333 -65.0167
87.2500 -66.0167
87.2667 -67.0167
87.2833 -68.0167
87.3000 -69.0167
87.3167 -70.0167
87.3333 -71.0167
87.3500 -72.0167
87.3667 -73.0167
87.3833 -74.0167
87.4000 -75.0167
87.4167 -76.0167
87.4333 -77.0167
87.4500 -78.0167
87.4667 -79.0167
87.4833 -80.0167
87.5000 -81.0167
87.5167 -82.0167
87.5333 -83.0167
87.5500 -84.0167
87.5667 -85.0167
87.5833 -86.0167
87.6000 -87.0167
87.6167 -88.0167
87.6333 -89.0167
87.6500 -90.0167
87.6667 -91.0167
87.6833 -92.0167
87.7000 -93.0167
87.7167 -94.0167
87.7333 -95.0167
87.7500 -96.0167
87.7667 -97.0167
87.7833 -98.0167
87.8000 -99.0167
87.8167 -100.0167
87.8333 -101.0167
87.8500 -102.0167
87.8667 -103.0167
87.8833 -104.0167
87.9000 -105.0167
87.9167 -106.0167
87.9333 -107.0167
87.9500 -108.0167
87.9667 -109.0167
87.9833 -110.0167
88.0000 -109.0167
88.0167 -108.0167
88.0333 -107.0167
88.0500 -106.0167
88.0667 -105.0167
88.0833 -104.0167
88.1000 -103.0167
88.1167 -102.0167
88.1333 -101.0167
88.1500 -100.0167
88.1667 -99.0167
88.1833 -98.0167
88.2000 -97.0167
88.2167 -96.0167
88.2333 -95.0167
88.2500 -94.0167
88.2667 -93.0167
88.2833 -92.0167
88.3000 -91.0167
88.3167 -90.0167
88.3333 -89.0167
88.3500 -88.0167
88.3667 -87.0167
88.3833 -86.0167
88.4000 -85.0167
88.4167 -84.0167
88.4333 -83.0167
88.4500 -82.0167
88.4667 -81.0167
88.4833 -80.0167
88.5000 -79.0167
88.5167 -78.0167
88.5333 -77.0167
88.5500 -76.0167
88.5667 -75.0167
88.5833 -74.0167
88.6000 -73.0167
88.6167 -72.0167
88.6333 -71.0167
88.6500 -70.0167
88.6667 -69.0167
88.6833 -68.0167
88.7000 -67.0167
88.7167 -66.0167
88.7333 -65.0167
88.7500 -64.0167
88.7667 -63.0167
88.7833 -62.0167
88.8000 -61.0167
88.8167 -60.0167
88.8333 -59.0167
88.8500 -58.0167
88.8667 -57.0167
88.8833 -56.0167
88.9000 -55.0167
88.9167 -54.0167
88.9333 -53.0167
88.9500 -52.0167
88.9667 -51.0167
88.9833 -50.0167
89.0000 -49.0167
89.0167 -48.0167
89.0333 -47.0167
89.0500 -46.0167
89.0667 -45.0167
89.0833 -44.0167
89.1000 -43.0167
89.1167 -42.0167
89.1333 -41.0167
89.1500 -40.0167
89.1667 -39.0167
89.1833 -38.0167
89.2000 -37.0167
89.2167 -36.0167
89.2333 -35.0167
89.2500 -34.0167
89.2667 -33.0167
89.2833 -32.0167
89.3000 -31.0167
89.3167 -30.0167
89.3333 -29.0167
89.3500 -28.0167
89.3667 -27.0167
89.3833 -26.0167
89.4000 -25.0167
89.4167 -24.0167
89.4333 -23.0167
89.4500 -22.0167
89.4667 -21.0167
89.4833 -20.0167
89.5000 -19.0167
89.5167 -18.0167
89.5333 -17.0167
89.5500 -16.0167
89.5667 -15.0167
89.5833 -14.0167
89.6000 -13.0167
89.6167 -12.0167
89.6333 -11.0167
89.6500 -10.0167
89.6667 -9.0167
89.6833 -8.0167
89.7000 -7.0167
89.7167 -6.0167
89.7333 -5.0167
89.7500 -4.0167
89.7667 -3.0167
89.7833 -2.0167
89.8000 -1.0167
89.8167 -0.0167
89.8333 0.9833
89.8500 1.9833
89.8667 2.9833
89.8833 3.9833
89.9000 4.9833
89.9167 5.9833
89.9333 6.9833
89.9500 7.9833
89.9667 8.9833
89.9833 9.9833
90.0000 9.9833
90.0167 9.9833
90.0333 9.9833
90.0500 9.9833
90.0667 9.9833
90.0833 9.9833
90.1000 9.9833
90.1167 9.9833
90.1333 9.9833
90.1500 9.9833
90.1667 9.9833
90.1833 9.9833
90.2000 9.9833
90.2167 9.9833
90.2333 9.9833
90.2500 9.9833
90.2667 9.9833
90.2833 9.9833
90.3000 9.9833
90.3167 9.9833
90.3333 9.9833
90.3500 9.9833
90.3667 9.9833
90.3833 9.9833
90.4000 9.9833
90.4167 9.9833
90.4333 9.9833
90.4500 9.9833
90.4667 9.9833
90.4833 9.9833
90.5000 9.9833
90.5167 9.9833
90.5333 9.9833
90.5500 9.9833
90.5667 9.9833
90.5833 9.9833
90.6000 9.9833
90.6167 9.9833
90.6333 9.9833
90.6500 9.9833
90.6667 9.9833
90.6833 9.9833
90.7000 9.9833
90.7167 9.9833
90.7333 9.9833
90.7500 9.9833
90.7667 9.9833
90.7833 9.9833
90.8000 9.9833
90.8167 9.9833
90.8333 9.9833
90.8500 9.9833
90.8667 9.9833
90.8833 9.9833
90.9000 9.9833
90.9167 9.9833
90.9333 9.9833
90.9500 9.9833
90.9667 9.9833
90.9833 9.9833
91.0000 9.9833
91.0167 9.9833
91.0333 9.9833
91.0500 9.9833
91.0667 9.9833
91.0833 9.9833
91.1000 9.9833
91.1167 9.9833
91.1333 9.9833
91.1500 9.9833
91.1667 9.9833
91.1833 9.9833
91.2000 9.9833
91.2167 9.9833
91.2333 9.9833
91.2500 9.9833
91.2667 9.9833
91.2833 9.9833
91.3000 9.9833
91.3167 9.9833
91.3333 9.9833
91.3500 9.9833
91.3667 9.9833
91.3833 9.9833
91.4000 9.9833
91.4167 9.9833
91.4333 9.9833
91.4500 9.9833
91.4667 9.9833
91.4833 9.9833
91.5000 9.9833
91.5167 9.9833
91.5333 9.9833
91.5500 9.9833
91.5667 9.9833
91.5833 9.9833
91.6000 9.9833
91.6167 9.9833
91.6333 9.9833
91.6500 9.9833
91.6667 9.9833
91.6833 9.9833
91.7000 9.9833
91.7167 9.9833
91.7333 9.9833
91.7500 9.9833
91.7667 9.9833
91.7833 9.9833
91.8000 9.9833
91.8167 9.9833
91.8333 9.9833
91.8500 9.9833
91.8667 9.9833
91.8833 9.9833
91.9000 9.9833
91.9167 9.9833
91.9333 9.9833
91.9500 9.9833
91.9667 9.9833
91.9833 9.9833
92.0000 9.9833
92.0167 9.9833
92.0333 9.9833
92.0500 9.9833
92.0667 9.9833
92.0833 9.9833
92.1000 9.9833
92.1167 9.9833
92.1333 9.9833
92.1500 9.9833
92.1667 9.9833
92.1833 9.9833
92.2000 9.9833
92.2167 9.9833
92.2333 9.9833
92.2500 9.9833
92.2667 9.9833
92.2833 9.9833
92.3000 9.9833
92.3167 9.9833
92.3333 9.9833
92.3500 9.9833
92.3667 9.9833
92.3833 9.9833
92.4000 9.9833
92.4167 9.9833
92.4333 9.9833
92.4500 9.9833
92.4667 9.9833
92.4833 9.9833
92.5000 9.9833
92.5167 9.9833
92.5333 9.9833
92.5500 9.9833
92.5667 9.9833
92.5833 9.9833
92.6000 9.9833
92.6167 9.9833
92.6333 9.9833
92.6500 9.9833
92.6667 9.9833
92.6833 9.9833
92.7000 9.9833
92.7167 9.9833
92.7333 9.9833
92.7500 9.9833
92.7667 9.9833
92.7833 9.9833
92.8000 9.9833
92.8167 9.9833
92.8333 9.9833
92.8500 9.9833
92.8667 9.9833
92.8833 9.9833
92.9000 9.9833
92.9167 9.9833
92.9333 9.9833
92.9500 9.9833
92.9667 9.9833
92.9833 9.9833
93.0000 9.9833
93.0167 9.9833
93.0333 9.9833
93.0500 9.9833
93.0667 9.9833
93.0833 9.9833
93.1000 9.9833
93.1167 9.9833
93.1333 9.9833
93.1500 9.9833
93.1667 9.9833
93.1833 9.9833
93.2000 9.9833
93.2167 9.9833
93.2333 9.9833
93.2500 9.9833
93.2667 9.9833
93.2833 9.9833
93.3000 9.9833
93.3167 9.9833
93.3333 9.9833
93.3500 9.9833
93.3667 9.9833
93.3833 9.9833
93.4000 9.9833
93.4167 9.9833
93.4333 9.9833
93.4500 9.9833
93.4667 9.9833
93.4833 9.9833
93.5000 9.9833
93.5167 9.9833
93.5333 9.9833
93.5500 9.9833
93.5667 9.9833
93.5833 9.9833
93.6000 9.9833
93.6167 9.9833
93.6333 9.9833
93.6500 9.9833
93.6667 9.9833
93.6833 9.9833
93.7000 9.9833
93.7167 9.9833
93.7333 9.9833
93.7500 9.9833
93.7667 9.9833
93.7833 9.9833
93.8000 9.9833
93.8167 9.9833
93.8333 9.9833
93.8500 9.9833
93.8667 9.9833
93.8833 9.9833
93.9000 9.9833
93.9167 9.9833
93.9333 9.9833
93.9500 9.9833
93.9667 9.9833
93.9833 9.9833
94.0000 9.9833
94.0167 9.9833
94.0333 9.9833
94.0500 9.9833
94.0667 9.9833
94.0833 9.9833
94.1000 9.9833
94.1167 9.9833
94.1333 9.9833
94.1500 9.9833
94.1667 9.9833
94.1833 9.9833
94.2000 9.9833
94.2167 9.9833
94.2333 9.9833
94.2500 9.9833
94.2667 9.9833
94.2833 9.9833
94.3000 9.9833
94.3167 9.9833
94.3333 9.9833
94.3500 9.9833
94.3667 9.9833
94.3833 9.9833
94.4000 9.9833
94.4167 9.9833
94.4333 9.9833
94.4500 9.9833
94.4667 9.9833
94.4833 9.9833
94.5000 9.9833
94.5167 9.9833
94.5333 9.9833
94.5500 9.9833
94.5667 9.9833
94.5833 9.9833
94.6000 9.9833
94.6167 9.9833
94.6333 9.9833
94.6500 9.9833
94.6667 9.9833
94.6833 9.9833
94.7000 9.9833
94.7167 9.9833
94.7333 9.9833
94.7500 9.9833
94.7667 9.9833
94.7833 9.9833
94.8000 9.9833
94.8167 9.9833
94.8333 9.9833
94.8500 9.9833
94.8667 9.9833
94.8833 9.9833
94.9000 9.9833
94.9167 9.9833
94.9333 9.9833
94.9500 9.9833
94.9667 9.9833
94.9833 9.9833
95.0000 9.9833
95.0167 9.9833
95.0333 9.9833
95.0500 9.9833
95.0667 9.9833
95.0833 9.9833
95.1000 9.9833
95.1167 9.9833
95.1333 9.9833
95.1500 9.9833
95.1667 9.9833
95.1833 9.9833
95.2000 9.9833
95.2167 9.9833
95.2333 9.9833
95.2500 9.9833
95.2667 9.9833
95.2833 9.9833
95.3000 9.9833
95.3167 9.9833
95.3333 9.9833
95.3500 9.9833
95.3667 9.9833
95.3833 9.9833
95.4000 9.9833
95.4167 9.9833
95.4333 9.9833
95.4500 9.9833
95.4667 9.9833
95.4833 9.9833
95.5000 9.9833
95.5167 9.9833
95.5333 9.9833
95.5500 9.9833
95.5667 9.9833
95.5833 9.9833
95.6000 9.9833
95.6167 9.9833
95.6333 9.9833
95.6500 9.9833
95.6667 9.9833
95.6833 9.9833
95.7000 9.9833
95.7167 9.9833
95.7333 9.9833
95.7500 9.9833
95.7667 9.9833
95.7833 9.9833
95.8000 9.9833
95.8167 9.9833
95.8333 9.9833
95.8500 9.9833
95.8667 9.9833
95.8833 9.9833
95.9000 9.9833
95.9167 9.9833
95.9333 9.9833
95.9500 9.9833
95.9667 9.9833
95.9833 9.9833
96.0000 9.9833
96.0167 9.9833
96.0333 9.9833
96.0500 9.9833
96.0667 9.9833
96.0833 9.9833
96.1000 9.9833
96.1167 9.9833
96.1333 9.9833
96.1500 9.9833
96.1667 9.9833
96.1833 9.9833
96.2000 9.9833
96.2167 9.9833
96.2333 9.9833
96.2500 9.9833
96.2667 9.9833
96.2833 9.9833
96.3000 9.9833
96.3167 9.9833
96.3333 9.9833
96.3500 9.9833
96.3667 9.9833
96.3833 9.9833
96.4000 9.9833
96.4167 9.9833
96.4333 9.9833
96.4500 9.9833
96.4667 9.9833
96.4833 9.9833
96.5000 9.9833
96.5167 9.9833
96.5333 9.9833
96.5500 9.9833
96.5667 9.9833
96.5833 9.9833
96.6000 9.9833
96.6167 9.9833
96.6333 9.9833
96.6500 9.9833
96.6667 9.9833
96.6833 9.9833
96.7000 9.9833
96.7167 9.9833
96.7333 9.9833
96.7500 9.9833
96.7667 9.9833
96.7833 9.9833
96.8000 9.9833
96.8167 9.9833
96.8333 9.9833
96.8500 9.9833
96.8667 9.9833
96.8833 9.9833
96.9000 9.9833
96.9167 9.9833
96.9333 9.9833
96.9500 9.9833
96.9667 9.9833
96.9833 9.9833
97.0000 9.9833
97.0167 9.9833
97.0333 9.9833
97.0500 9.9833
97.0667 9.9833
97.0833 9.9833
97.1000 9.9833
97.1167 9.9833
97.1333 9.9833
97.1500 9.9833
97.1667 9.9833
97.1833 9.9833
97.2000 9.9833
97.2167 9.9833
97.2333 9.9833
97.2500 9.9833
97.2667 9.9833
97.2833 9.9833
97.3000 9.9833
97.3167 9.9833
97.3333 9.9833
97.3500 9.9833
97.3667 9.9833
97.3833 9.9833
97.4000 9.9833
97.4167 9.9833
97.4333 9.9833
97.4500 9.9833
97.4667 9.9833
97.4833 9.9833
97.5000 9.9833
97.5167 9.9833
97.5333 9.9833
97.5500 9.9833
97.5667 9.9833
97.5833 9.9833
97.6000 9.9833
97.6167 9.9833
97.6333 9.9833
97.6500 9.9833
97.6667 9.9833
97.6833 9.9833
97.7000 9.9833
97.7167 9.9833
97.7333 9.9833
97.7500 9.9833
97.7667 9.9833
97.7833 9.9833
97.8000 9.9833
97.8167 9.9833
97.8333 9.9833
97.8500 9.9833
97.8667 9.9833
97.8833 9.9833
97.9000 9.9833
97.9167 9.9833
97.9333 9.9833
97.9500 9.9833
97.9667 9.9833
97.9833 9.9833
98.0000 9.9833
98.0167 9.9833
98.0333 9.9833
98.0500 9.9833
98.0667 9.9833
98.0833 9.9833
98.1000 9.9833
98.1167 9.9833
98.1333 9.9833
98.1500 9.9833
98.1667 9.9833
98.1833 9.9833
98.2000 9.9833
98.2167 9.9833
98.2333 9.9833
98.2500 9.9833
98.2667 9.9833
98.2833 9.9833
98.3000 9.9833
98.3167 9.9833
98.3333 9.9833
98.3500 9.9833
98.3667 9.9833
98.3833 9.9833
98.4000 9.9833
98.4167 9.9833
98.4333 9.9833
98.4500 9.9833
98.4667 9.9833
98.4833 9.9833
98.5000 9.9833
98.5167 9.9833
98.5333 9.9833
98.5500 9.9833
98.5667 9.9833
98.5833 9.9833
98.6000 9.9833
98.6167 9.9833
98.6333 9.9833
98.6500 9.9833
98.6667 9.9833
98.6833 9.9833
98.7000 9.9833
98.7167 9.9833
98.7333 9.9833
98.7500 9.9833
98.7667 9.9833
98.7833 9.9833
98.8000 9.9833
98.8167 9.9833
98.8333 9.9833
98.8500 9.9833
98.8667 9.9833
98.8833 9.9833
98.9000 9.9833
98.9167 9.9833
98.9333 9.9833
98.9500 9.9833
98.9667 9.9833
98.9833 9.9833
99.0000 9.9833
99.0167 9.9833
99.0333 9.9833
99.0500 9.9833
99.0667 9.9833
99.0833 9.9833
99.1000 9.9833
99.1167 9.9833
99.1333 9.9833
99.1500 9.9833
99.1667 9.9833
99.1833 9.9833
99.2000 9.9833
99.2167 9.9833
99.2333 9.9833
99.2500 9.9833
99.2667 9.9833
99.2833 9.9833
99.3000 9.9833
99.3167 9.9833
99.3333 9.9833
99.3500 9.9833
99.3667 9.9833
99.3833 9.9833
99.4000 9.9833
99.4167 9.9833
99.4333 9.9833
99.4500 9.9833
99.4667 9.9833
99.4833 9.9833
99.5000 9.9833
99.5167 9.9833
99.5333 9.9833
99.5500 9.9833
99.5667 9.9833
99.5833 9.9833
99.6000 9.9833
99.6167 9.9833
99.6333 9.9833
99.6500 9.9833
99.6667 9.9833
99.6833 9.9833
99.7000 9.9833
99.7167 9.9833
99.7333 9.9833
99.7500 9.9833
99.7667 9.9833
99.7833 9.9833
99.8000 9.9833
99.8167 9.9833
99.8333 9.9833
99.8500 9.9833
99.8667 9.9833
99.8833 9.9833
99.9000 9.9833
99.9167 9.9833
99.9333 9.9833
99.9500 9.9833
99.9667 9.9833
99.9833 9.9833
100.0000 9.9833
