time [s] Activity [arb units]
0.0000 0.0000
0.5000 2.3576
1.0000 1.7167
1.5000 1.3339
2.0000 1.1123
2.5000 0.9581
3.0000 0.8412
3.5000 0.7504
4.0000 0.6794
4.5000 0.6238
5.0000 0.5801
5.5000 0.5457
6.0000 0.5185
6.5000 0.4970
7.0000 0.4798
7.5000 0.4661
8.0000 0.4551
8.5000 0.4461
9.0000 0.4387
9.5000 0.4326
10.0000 0.4275
10.5000 0.4232
11.0000 0.4194
11.5000 0.4162
12.0000 0.4133
12.5000 0.4107
13.0000 0.4083
13.5000 0.4060
14.0000 0.4040
14.5000 0.4020
15.0000 0.4001
15.5000 0.3983
16.0000 0.3965
16.5000 0.3948
17.0000 0.3931
17.5000 0.3915
18.0000 0.3899
18.5000 0.3883
19.0000 0.3867
19.5000 0.3851
20.0000 0.3835
20.5000 0.3820
21.0000 0.3805
21.5000 0.3789
22.0000 0.3774
22.5000 0.3759
23.0000 0.3744
23.5000 0.3729
24.0000 0.3714
24.5000 0.3699
25.0000 0.3684
25.5000 0.3670
26.0000 0.3655
26.5000 0.3640
27.0000 0.3626
27.5000 0.3611
28.0000 0.3597
28.5000 0.3583
29.0000 0.3568
29.5000 0.3554
30.0000 0.3540
30.5000 0.3526
31.0000 0.3512
31.5000 0.3498
32.0000 0.3484
32.5000 0.3470
33.0000 0.3456
33.5000 0.3442
34.0000 0.3428
34.5000 0.3415
35.0000 0.3401
35.5000 0.3387
36.0000 0.3374
36.5000 0.3360
37.0000 0.3347
37.5000 0.3334
38.0000 0.3320
38.5000 0.3307
39.0000 0.3294
39.5000 0.3281
40.0000 0.3268
40.5000 0.3255
41.0000 0.3242
41.5000 0.3229
42.0000 0.3216
42.5000 0.3203
43.0000 0.3190
43.5000 0.3177
44.0000 0.3165
44.5000 0.3152
45.0000 0.3140
45.5000 0.3127
46.0000 0.3115
46.5000 0.3102
47.0000 0.3090
47.5000 0.3077
48.0000 0.3065
48.5000 0.3053
49.0000 0.3041
49.5000 0.3029
50.0000 0.3016
50.5000 0.3004
51.0000 0.2992
51.5000 0.2980
52.0000 0.2969
52.5000 0.2957
53.0000 0.2945
53.5000 0.2933
54.0000 0.2921
54.5000 0.2910
55.0000 0.2898
55.5000 0.2887
56.0000 0.2875
56.5000 0.2864
57.0000 0.2852
57.5000 0.2841
58.0000 0.2829
58.5000 0.2818
59.0000 0.2807
59.5000 0.2796
60.0000 0.2785
60.5000 0.2773
61.0000 0.2762
61.5000 0.2751
62.0000 0.2740
62.5000 0.2729
63.0000 0.2718
63.5000 0.2708
64.0000 0.2697
64.5000 0.2686
65.0000 0.2675
65.5000 0.2665
66.0000 0.2654
66.5000 0.2643
67.0000 0.2633
67.5000 0.2622
68.0000 0.2612
68.5000 0.2601
69.0000 0.2591
69.5000 0.2581
70.0000 0.2570
70.5000 0.2560
71.0000 0.2550
71.5000 0.2540
72.0000 0.2530
72.5000 0.2520
73.0000 0.2509
73.5000 0.2499
74.0000 0.2489
74.5000 0.2480
75.0000 0.2470
75.5000 0.2460
76.0000 0.2450
76.5000 0.2440
77.0000 0.2430
77.5000 0.2421
78.0000 0.2411
78.5000 0.2401
79.0000 0.2392
79.5000 0.2382
80.0000 0.2373
80.5000 0.2363
81.0000 0.2354
81.5000 0.2345
82.0000 0.2335
82.5000 0.2326
83.0000 0.2317
83.5000 0.2307
84.0000 0.2298
84.5000 0.2289
85.0000 0.2280
85.5000 0.2271
86.0000 0.2262
86.5000 0.2253
87.0000 0.2244
87.5000 0.2235
88.0000 0.2226
88.5000 0.2217
89.0000 0.2208
89.5000 0.2199
90.0000 0.2190
90.5000 0.2182
91.0000 0.2173
91.5000 0.2164
92.0000 0.2156
92.5000 0.2147
93.0000 0.2138
93.5000 0.2130
94.0000 0.2121
94.5000 0.2113
95.0000 0.2104
95.5000 0.2096
96.0000 0.2088
96.5000 0.2079
97.0000 0.2071
97.5000 0.2063
98.0000 0.2055
98.5000 0.2046
99.0000 0.2038
99.5000 0.2030
100.0000 0.2022
100.5000 0.2014
101.0000 0.2006
101.5000 0.1998
102.0000 0.1990
102.5000 0.1982
103.0000 0.1974
103.5000 0.1966
104.0000 0.1958
104.5000 0.1950
105.0000 0.1943
105.5000 0.1935
106.0000 0.1927
106.5000 0.1920
107.0000 0.1912
107.5000 0.1904
108.0000 0.1897
108.5000 0.1889
109.0000 0.1882
109.5000 0.1874
110.0000 0.1867
110.5000 0.1859
111.0000 0.1852
111.5000 0.1844
112.0000 0.1837
112.5000 0.1830
113.0000 0.1822
113.5000 0.1815
114.0000 0.1808
114.5000 0.1801
115.0000 0.1793
115.5000 0.1786
116.0000 0.1779
116.5000 0.1772
117.0000 0.1765
117.5000 0.1758
118.0000 0.1751
118.5000 0.1744
119.0000 0.1737
119.5000 0.1730
120.0000 0.1723
120.5000 0.1716
121.0000 0.1709
121.5000 0.1702
122.0000 0.1696
122.5000 0.1689
123.0000 0.1682
123.5000 0.1675
124.0000 0.1669
124.5000 0.1662
125.0000 0.1655
125.5000 0.1649
126.0000 0.1642
126.5000 0.1636
127.0000 0.1629
127.5000 0.1623
128.0000 0.1616
128.5000 0.1610
129.0000 0.1603
129.5000 0.1597
130.0000 0.1591
130.5000 0.1584
131.0000 0.1578
131.5000 0.1572
132.0000 0.1565
132.5000 0.1559
133.0000 0.1553
133.5000 0.1547
134.0000 0.1540
134.5000 0.1534
135.0000 0.1528
135.5000 0.1522
136.0000 0.1516
136.5000 0.1510
137.0000 0.1504
137.5000 0.1498
138.0000 0.1492
138.5000 0.1486
139.0000 0.1480
139.5000 0.1474
140.0000 0.1468
140.5000 0.1462
141.0000 0.1457
141.5000 0.1451
142.0000 0.1445
142.5000 0.1439
143.0000 0.1433
143.5000 0.1428
144.0000 0.1422
144.5000 0.1416
145.0000 0.1411
145.5000 0.1405
146.0000 0.1399
146.5000 0.1394
147.0000 0.1388
147.5000 0.1383
148.0000 0.1377
148.5000 0.1372
149.0000 0.1366
149.5000 0.1361
150.0000 0.1355
150.5000 0.1350
151.0000 0.1345
151.5000 0.1339
152.0000 0.1334
152.5000 0.1329
153.0000 0.1323
153.5000 0.1318
154.0000 0.1313
154.5000 0.1307
155.0000 0.1302
155.5000 0.1297
156.0000 0.1292
156.5000 0.1287
157.0000 0.1282
157.5000 0.1276
158.0000 0.1271
158.5000 0.1266
159.0000 0.1261
159.5000 0.1256
160.0000 0.1251
160.5000 0.1246
161.0000 0.1241
161.5000 0.1236
162.0000 0.1231
162.5000 0.1226
163.0000 0.1221
163.5000 0.1217
164.0000 0.1212
164.5000 0.1207
165.0000 0.1202
165.5000 0.1197
166.0000 0.1193
166.5000 0.1188
167.0000 0.1183
167.5000 0.1178
168.0000 0.1174
168.5000 0.1169
169.0000 0.1164
169.5000 0.1160
170.0000 0.1155
170.5000 0.1150
171.0000 0.1146
171.5000 0.1141
172.0000 0.1137
172.5000 0.1132
173.0000 0.1128
173.5000 0.1123
174.0000 0.1119
174.5000 0.1114
175.0000 0.1110
175.5000 0.1105
176.0000 0.1101
176.5000 0.1096
177.0000 0.1092
177.5000 0.1088
178.0000 0.1083
178.5000 0.1079
179.0000 0.1075
179.5000 0.1070
180.0000 0.1066
180.5000 0.1062
181.0000 0.1058
181.5000 0.1053
182.0000 0.1049
182.5000 0.1045
183.0000 0.1041
183.5000 0.1037
184.0000 0.1033
184.5000 0.1028
185.0000 0.1024
185.5000 0.1020
186.0000 0.1016
186.5000 0.1012
187.0000 0.1008
187.5000 0.1004
188.0000 0.1000
188.5000 0.0996
189.0000 0.0992
189.5000 0.0988
190.0000 0.0984
190.5000 0.0980
191.0000 0.0976
191.5000 0.0972
192.0000 0.0969
192.5000 0.0965
193.0000 0.0961
193.5000 0.0957
194.0000 0.0953
194.5000 0.0949
195.0000 0.0946
195.5000 0.0942
196.0000 0.0938
196.5000 0.0934
197.0000 0.0931
197.5000 0.0927
198.0000 0.0923
198.5000 0.0920
199.0000 0.0916
199.5000 0.0912
200.0000 0.0909
